Labels	APTES_br15_7%excess_500kHz_0	
Type	Time Scan	
Comment		
Start	0.00	
Stop	1999.511700	
Step	0.48828125	
Fixed/Offset	 	
XAxis	Time(ns)	
YAxis	Counts	

0.00	0.00000000E+0	
0.48828125	0.00000000E+0	
0.97656250	0.00000000E+0	
1.4648438	0.00000000E+0	
1.9531250	0.00000000E+0	
2.4414063	0.00000000E+0	
2.9296875	0.00000000E+0	
3.4179688	0.00000000E+0	
3.906250	0.00000000E+0	
4.3945313	0.00000000E+0	
4.8828125	0.00000000E+0	
5.3710938	0.00000000E+0	
5.8593750	0.00000000E+0	
6.3476563	0.00000000E+0	
6.8359375	0.00000000E+0	
7.3242188	0.00000000E+0	
7.81250	0.00000000E+0	
8.3007813	0.00000000E+0	
8.7890625	0.00000000E+0	
9.2773438	0.00000000E+0	
9.7656250	0.00000000E+0	
10.253906	0.00000000E+0	
10.742188	0.00000000E+0	
11.230469	0.00000000E+0	
11.718750	0.00000000E+0	
12.207031	0.00000000E+0	
12.695313	0.00000000E+0	
13.183594	0.00000000E+0	
13.671875	0.00000000E+0	
14.160156	0.00000000E+0	
14.648438	0.00000000E+0	
15.136719	0.00000000E+0	
15.6250	0.00000000E+0	
16.113281	0.00000000E+0	
16.601563	0.00000000E+0	
17.089844	0.00000000E+0	
17.578125	0.00000000E+0	
18.066406	0.00000000E+0	
18.554688	0.00000000E+0	
19.042969	0.00000000E+0	
19.531250	0.00000000E+0	
20.019531	0.00000000E+0	
20.507813	0.00000000E+0	
20.996094	0.00000000E+0	
21.484375	0.00000000E+0	
21.972656	0.00000000E+0	
22.460938	0.00000000E+0	
22.949219	0.00000000E+0	
23.43750	0.00000000E+0	
23.925781	0.00000000E+0	
24.414063	0.00000000E+0	
24.902344	0.00000000E+0	
25.390625	0.00000000E+0	
25.878906	0.00000000E+0	
26.367188	0.00000000E+0	
26.855469	0.00000000E+0	
27.343750	0.00000000E+0	
27.832031	0.00000000E+0	
28.320313	0.00000000E+0	
28.808594	0.00000000E+0	
29.296875	0.00000000E+0	
29.785156	0.00000000E+0	
30.273438	0.00000000E+0	
30.761719	0.00000000E+0	
31.250	0.00000000E+0	
31.738281	0.00000000E+0	
32.226563	0.00000000E+0	
32.714844	0.00000000E+0	
33.203125	0.00000000E+0	
33.691406	0.00000000E+0	
34.179688	0.00000000E+0	
34.667969	0.00000000E+0	
35.156250	0.00000000E+0	
35.644531	0.00000000E+0	
36.132813	0.00000000E+0	
36.621094	0.00000000E+0	
37.109375	0.00000000E+0	
37.597656	0.00000000E+0	
38.085938	0.00000000E+0	
38.574219	0.00000000E+0	
39.06250	0.00000000E+0	
39.550781	0.00000000E+0	
40.039063	0.00000000E+0	
40.527344	0.00000000E+0	
41.015625	0.00000000E+0	
41.503906	0.00000000E+0	
41.992188	2.00000000E+0	
42.480469	0.00000000E+0	
42.968750	4.00000000E+0	
43.457031	1.00000000E+0	
43.945313	3.00000000E+0	
44.433594	1.00000000E+0	
44.921875	4.00000000E+0	
45.410156	0.00000000E+0	
45.898438	0.00000000E+0	
46.386719	1.00000000E+0	
46.8750	1.00000000E+0	
47.363281	1.00000000E+0	
47.851563	3.00000000E+0	
48.339844	1.00000000E+0	
48.828125	1.00000000E+0	
49.316406	1.00000000E+0	
49.804688	0.00000000E+0	
50.292969	2.00000000E+0	
50.781250	2.00000000E+0	
51.269531	1.00000000E+0	
51.757813	0.00000000E+0	
52.246094	0.00000000E+0	
52.734375	3.00000000E+0	
53.222656	0.00000000E+0	
53.710938	1.00000000E+0	
54.199219	1.00000000E+0	
54.68750	0.00000000E+0	
55.175781	0.00000000E+0	
55.664063	1.00000000E+0	
56.152344	1.00000000E+0	
56.640625	2.00000000E+0	
57.128906	1.00000000E+0	
57.617188	3.00000000E+0	
58.105469	1.00000000E+0	
58.593750	2.00000000E+0	
59.082031	1.00000000E+0	
59.570313	0.00000000E+0	
60.058594	0.00000000E+0	
60.546875	2.00000000E+0	
61.035156	1.00000000E+1	
61.523438	2.20000000E+1	
62.011719	4.80000000E+1	
62.50	7.00000000E+1	
62.988281	6.70000000E+1	
63.476563	6.60000000E+1	
63.964844	5.10000000E+1	
64.453125	5.80000000E+1	
64.941406	5.40000000E+1	
65.429688	4.00000000E+1	
65.917969	4.90000000E+1	
66.406250	3.70000000E+1	
66.894531	5.10000000E+1	
67.382813	3.70000000E+1	
67.871094	5.40000000E+1	
68.359375	3.80000000E+1	
68.847656	3.40000000E+1	
69.335938	3.00000000E+1	
69.824219	2.30000000E+1	
70.31250	3.80000000E+1	
70.800781	3.80000000E+1	
71.289063	3.70000000E+1	
71.777344	3.70000000E+1	
72.265625	3.30000000E+1	
72.753906	3.50000000E+1	
73.242188	3.60000000E+1	
73.730469	3.00000000E+1	
74.218750	3.50000000E+1	
74.707031	4.10000000E+1	
75.195313	3.00000000E+1	
75.683594	3.90000000E+1	
76.171875	3.30000000E+1	
76.660156	2.20000000E+1	
77.148438	2.70000000E+1	
77.636719	3.40000000E+1	
78.1250	2.50000000E+1	
78.613281	3.10000000E+1	
79.101563	3.00000000E+1	
79.589844	3.60000000E+1	
80.078125	3.90000000E+1	
80.566406	2.80000000E+1	
81.054688	2.70000000E+1	
81.542969	2.90000000E+1	
82.031250	2.50000000E+1	
82.519531	2.40000000E+1	
83.007813	2.60000000E+1	
83.496094	2.10000000E+1	
83.984375	3.00000000E+1	
84.472656	2.20000000E+1	
84.960938	2.90000000E+1	
85.449219	3.00000000E+1	
85.93750	3.00000000E+1	
86.425781	2.40000000E+1	
86.914063	3.10000000E+1	
87.402344	2.60000000E+1	
87.890625	2.40000000E+1	
88.378906	2.80000000E+1	
88.867188	2.90000000E+1	
89.355469	2.00000000E+1	
89.843750	2.90000000E+1	
90.332031	2.60000000E+1	
90.820313	2.40000000E+1	
91.308594	2.40000000E+1	
91.796875	2.40000000E+1	
92.285156	3.10000000E+1	
92.773438	3.30000000E+1	
93.261719	2.60000000E+1	
93.750	2.40000000E+1	
94.238281	3.20000000E+1	
94.726563	2.60000000E+1	
95.214844	2.90000000E+1	
95.703125	2.10000000E+1	
96.191406	2.00000000E+1	
96.679688	2.10000000E+1	
97.167969	2.60000000E+1	
97.656250	2.80000000E+1	
98.144531	2.40000000E+1	
98.632813	3.00000000E+1	
99.121094	2.40000000E+1	
99.609375	2.10000000E+1	
100.097660	2.80000000E+1	
100.585940	2.50000000E+1	
101.074220	2.20000000E+1	
101.562500	1.80000000E+1	
102.050780	2.50000000E+1	
102.539060	2.50000000E+1	
103.027340	2.40000000E+1	
103.515630	2.90000000E+1	
104.003910	3.00000000E+1	
104.492190	2.20000000E+1	
104.980470	2.00000000E+1	
105.468750	2.30000000E+1	
105.95700	2.20000000E+1	
106.445310	2.70000000E+1	
106.933590	2.90000000E+1	
107.421880	1.80000000E+1	
107.910160	2.90000000E+1	
108.398440	3.00000000E+1	
108.886720	1.60000000E+1	
109.37500	2.70000000E+1	
109.863280	2.90000000E+1	
110.351560	2.60000000E+1	
110.839840	1.60000000E+1	
111.328130	2.60000000E+1	
111.816410	1.90000000E+1	
112.304690	2.40000000E+1	
112.79300	2.60000000E+1	
113.281250	2.00000000E+1	
113.769530	1.40000000E+1	
114.257810	1.80000000E+1	
114.746090	2.20000000E+1	
115.234380	1.60000000E+1	
115.722660	1.80000000E+1	
116.210940	2.10000000E+1	
116.699220	3.40000000E+1	
117.187500	1.90000000E+1	
117.675780	2.60000000E+1	
118.164060	2.40000000E+1	
118.652340	2.10000000E+1	
119.140630	2.10000000E+1	
119.628910	2.00000000E+1	
120.117190	1.80000000E+1	
120.605470	1.20000000E+1	
121.093750	2.00000000E+1	
121.58200	1.90000000E+1	
122.070310	2.10000000E+1	
122.558590	2.30000000E+1	
123.046880	1.90000000E+1	
123.535160	1.80000000E+1	
124.023440	1.50000000E+1	
124.511720	2.70000000E+1	
125.00	2.10000000E+1	
125.488280	2.90000000E+1	
125.976560	2.00000000E+1	
126.464840	2.00000000E+1	
126.953130	2.20000000E+1	
127.441410	2.20000000E+1	
127.929690	2.50000000E+1	
128.41800	2.30000000E+1	
128.906250	1.90000000E+1	
129.394530	2.50000000E+1	
129.882810	1.70000000E+1	
130.371090	1.90000000E+1	
130.859380	2.30000000E+1	
131.347660	2.00000000E+1	
131.835940	1.80000000E+1	
132.324220	2.60000000E+1	
132.812500	2.00000000E+1	
133.300780	2.00000000E+1	
133.789060	2.40000000E+1	
134.277340	1.80000000E+1	
134.765630	2.80000000E+1	
135.253910	2.10000000E+1	
135.742190	1.60000000E+1	
136.230470	2.70000000E+1	
136.718750	2.30000000E+1	
137.20700	2.20000000E+1	
137.695310	2.20000000E+1	
138.183590	1.50000000E+1	
138.671880	1.50000000E+1	
139.160160	1.40000000E+1	
139.648440	1.40000000E+1	
140.136720	2.00000000E+1	
140.62500	2.20000000E+1	
141.113280	2.00000000E+1	
141.601560	1.60000000E+1	
142.089840	1.90000000E+1	
142.578130	1.40000000E+1	
143.066410	1.50000000E+1	
143.554690	2.10000000E+1	
144.04300	2.30000000E+1	
144.531250	2.10000000E+1	
145.019530	2.80000000E+1	
145.507810	1.90000000E+1	
145.996090	1.90000000E+1	
146.484380	1.60000000E+1	
146.972660	1.40000000E+1	
147.460940	1.70000000E+1	
147.949220	2.20000000E+1	
148.437500	1.20000000E+1	
148.925780	1.80000000E+1	
149.414060	2.20000000E+1	
149.902340	2.30000000E+1	
150.390630	2.00000000E+1	
150.878910	2.10000000E+1	
151.367190	1.20000000E+1	
151.855470	1.80000000E+1	
152.343750	1.80000000E+1	
152.83200	1.50000000E+1	
153.320310	1.40000000E+1	
153.808590	1.80000000E+1	
154.296880	2.30000000E+1	
154.785160	1.50000000E+1	
155.273440	2.00000000E+1	
155.761720	2.10000000E+1	
156.2500	1.50000000E+1	
156.738280	9.00000000E+0	
157.226560	1.10000000E+1	
157.714840	1.30000000E+1	
158.203130	1.40000000E+1	
158.691410	1.40000000E+1	
159.179690	1.70000000E+1	
159.66800	2.90000000E+1	
160.156250	1.30000000E+1	
160.644530	1.30000000E+1	
161.132810	2.60000000E+1	
161.621090	1.60000000E+1	
162.109380	2.40000000E+1	
162.597660	2.80000000E+1	
163.085940	1.90000000E+1	
163.574220	2.00000000E+1	
164.062500	1.90000000E+1	
164.550780	1.40000000E+1	
165.039060	1.90000000E+1	
165.527340	2.40000000E+1	
166.015630	1.70000000E+1	
166.503910	1.80000000E+1	
166.992190	1.60000000E+1	
167.480470	1.90000000E+1	
167.968750	1.40000000E+1	
168.45700	1.80000000E+1	
168.945310	2.20000000E+1	
169.433590	1.60000000E+1	
169.921880	9.00000000E+0	
170.410160	1.10000000E+1	
170.898440	1.40000000E+1	
171.386720	1.30000000E+1	
171.87500	1.80000000E+1	
172.363280	1.10000000E+1	
172.851560	2.40000000E+1	
173.339840	1.60000000E+1	
173.828130	1.70000000E+1	
174.316410	2.10000000E+1	
174.804690	2.20000000E+1	
175.29300	1.50000000E+1	
175.781250	1.90000000E+1	
176.269530	1.60000000E+1	
176.757810	1.80000000E+1	
177.246090	2.10000000E+1	
177.734380	1.90000000E+1	
178.222660	1.60000000E+1	
178.710940	1.60000000E+1	
179.199220	1.90000000E+1	
179.687500	1.60000000E+1	
180.175780	1.40000000E+1	
180.664060	1.20000000E+1	
181.152340	1.20000000E+1	
181.640630	1.60000000E+1	
182.128910	1.30000000E+1	
182.617190	1.40000000E+1	
183.105470	1.70000000E+1	
183.593750	1.40000000E+1	
184.08200	1.40000000E+1	
184.570310	1.50000000E+1	
185.058590	1.50000000E+1	
185.546880	2.30000000E+1	
186.035160	1.80000000E+1	
186.523440	1.00000000E+1	
187.011720	1.40000000E+1	
187.500	1.90000000E+1	
187.988280	1.60000000E+1	
188.476560	1.90000000E+1	
188.964840	1.90000000E+1	
189.453130	1.40000000E+1	
189.941410	1.30000000E+1	
190.429690	1.50000000E+1	
190.91800	8.00000000E+0	
191.406250	1.50000000E+1	
191.894530	8.00000000E+0	
192.382810	1.30000000E+1	
192.871090	1.80000000E+1	
193.359380	1.50000000E+1	
193.847660	8.00000000E+0	
194.335940	1.20000000E+1	
194.824220	1.30000000E+1	
195.312500	1.50000000E+1	
195.800780	1.50000000E+1	
196.289060	1.20000000E+1	
196.777340	1.30000000E+1	
197.265630	1.60000000E+1	
197.753910	1.30000000E+1	
198.242190	1.30000000E+1	
198.730470	1.90000000E+1	
199.218750	1.00000000E+1	
199.70700	1.80000000E+1	
200.195310	1.00000000E+1	
200.683590	6.00000000E+0	
201.171880	1.10000000E+1	
201.660160	7.00000000E+0	
202.148440	1.30000000E+1	
202.636720	1.40000000E+1	
203.12500	1.10000000E+1	
203.613280	1.50000000E+1	
204.101560	1.20000000E+1	
204.589840	2.00000000E+1	
205.078130	1.60000000E+1	
205.566410	9.00000000E+0	
206.054690	1.00000000E+1	
206.54300	7.00000000E+0	
207.031250	1.80000000E+1	
207.519530	1.20000000E+1	
208.007810	2.10000000E+1	
208.496090	1.40000000E+1	
208.984380	1.00000000E+1	
209.472660	1.60000000E+1	
209.960940	1.20000000E+1	
210.449220	1.50000000E+1	
210.937500	1.10000000E+1	
211.425780	1.30000000E+1	
211.914060	1.90000000E+1	
212.402340	1.30000000E+1	
212.890630	1.00000000E+1	
213.378910	1.00000000E+1	
213.867190	8.00000000E+0	
214.355470	1.50000000E+1	
214.843750	1.30000000E+1	
215.33200	9.00000000E+0	
215.820310	1.10000000E+1	
216.308590	9.00000000E+0	
216.796880	8.00000000E+0	
217.285160	1.10000000E+1	
217.773440	1.10000000E+1	
218.261720	1.60000000E+1	
218.7500	1.70000000E+1	
219.238280	1.30000000E+1	
219.726560	1.10000000E+1	
220.214840	1.10000000E+1	
220.703130	1.80000000E+1	
221.191410	1.50000000E+1	
221.679690	1.70000000E+1	
222.16800	1.40000000E+1	
222.656250	1.90000000E+1	
223.144530	1.10000000E+1	
223.632810	1.70000000E+1	
224.121090	1.40000000E+1	
224.609380	1.70000000E+1	
225.097660	1.40000000E+1	
225.585940	1.60000000E+1	
226.074220	1.50000000E+1	
226.562500	1.40000000E+1	
227.050780	1.40000000E+1	
227.539060	1.50000000E+1	
228.027340	8.00000000E+0	
228.515630	2.20000000E+1	
229.003910	2.00000000E+1	
229.492190	1.10000000E+1	
229.980470	1.80000000E+1	
230.468750	1.90000000E+1	
230.95700	1.00000000E+1	
231.445310	1.40000000E+1	
231.933590	1.60000000E+1	
232.421880	1.50000000E+1	
232.910160	1.30000000E+1	
233.398440	1.30000000E+1	
233.886720	1.70000000E+1	
234.37500	1.70000000E+1	
234.863280	1.30000000E+1	
235.351560	1.50000000E+1	
235.839840	1.10000000E+1	
236.328130	2.20000000E+1	
236.816410	1.10000000E+1	
237.304690	2.10000000E+1	
237.79300	2.00000000E+1	
238.281250	1.20000000E+1	
238.769530	1.30000000E+1	
239.257810	7.00000000E+0	
239.746090	1.10000000E+1	
240.234380	1.50000000E+1	
240.722660	1.00000000E+1	
241.210940	1.00000000E+1	
241.699220	1.30000000E+1	
242.187500	1.10000000E+1	
242.675780	1.00000000E+1	
243.164060	2.50000000E+1	
243.652340	7.00000000E+0	
244.140630	1.70000000E+1	
244.628910	1.10000000E+1	
245.117190	1.00000000E+1	
245.605470	1.50000000E+1	
246.093750	8.00000000E+0	
246.58200	2.00000000E+1	
247.070310	1.70000000E+1	
247.558590	9.00000000E+0	
248.046880	7.00000000E+0	
248.535160	2.00000000E+1	
249.023440	9.00000000E+0	
249.511720	9.00000000E+0	
250.00	1.00000000E+1	
250.488280	1.50000000E+1	
250.976560	1.40000000E+1	
251.464840	1.30000000E+1	
251.953130	1.70000000E+1	
252.441410	1.40000000E+1	
252.929690	1.50000000E+1	
253.41800	7.00000000E+0	
253.906250	1.00000000E+1	
254.394530	1.40000000E+1	
254.882810	1.80000000E+1	
255.371090	1.10000000E+1	
255.859380	1.40000000E+1	
256.347660	1.40000000E+1	
256.835940	1.10000000E+1	
257.324220	1.10000000E+1	
257.812500	1.00000000E+1	
258.300780	8.00000000E+0	
258.789060	1.00000000E+1	
259.277340	1.80000000E+1	
259.765630	8.00000000E+0	
260.253910	1.10000000E+1	
260.742190	1.30000000E+1	
261.230470	1.20000000E+1	
261.718750	1.20000000E+1	
262.20700	1.00000000E+1	
262.695310	1.60000000E+1	
263.183590	9.00000000E+0	
263.671880	1.30000000E+1	
264.160160	1.70000000E+1	
264.648440	9.00000000E+0	
265.136720	9.00000000E+0	
265.62500	9.00000000E+0	
266.113280	1.20000000E+1	
266.601560	1.30000000E+1	
267.089840	1.10000000E+1	
267.578130	6.00000000E+0	
268.066410	8.00000000E+0	
268.554690	1.80000000E+1	
269.04300	6.00000000E+0	
269.531250	9.00000000E+0	
270.019530	1.10000000E+1	
270.507810	1.30000000E+1	
270.996090	9.00000000E+0	
271.484380	7.00000000E+0	
271.972660	8.00000000E+0	
272.460940	1.30000000E+1	
272.949220	1.10000000E+1	
273.437500	1.10000000E+1	
273.925780	1.20000000E+1	
274.414060	7.00000000E+0	
274.902340	1.50000000E+1	
275.390630	9.00000000E+0	
275.878910	1.70000000E+1	
276.367190	1.70000000E+1	
276.855470	1.60000000E+1	
277.343750	8.00000000E+0	
277.83200	2.00000000E+1	
278.320310	1.30000000E+1	
278.808590	1.20000000E+1	
279.296880	6.00000000E+0	
279.785160	1.10000000E+1	
280.273440	1.60000000E+1	
280.761720	1.10000000E+1	
281.2500	1.10000000E+1	
281.738280	1.00000000E+1	
282.226560	1.70000000E+1	
282.714840	1.10000000E+1	
283.203130	1.40000000E+1	
283.691410	1.70000000E+1	
284.179690	1.50000000E+1	
284.66800	1.10000000E+1	
285.156250	1.70000000E+1	
285.644530	1.20000000E+1	
286.132810	8.00000000E+0	
286.621090	8.00000000E+0	
287.109380	1.20000000E+1	
287.597660	7.00000000E+0	
288.085940	1.00000000E+1	
288.574220	1.40000000E+1	
289.062500	1.00000000E+1	
289.550780	1.70000000E+1	
290.039060	1.10000000E+1	
290.527340	9.00000000E+0	
291.015630	1.00000000E+1	
291.503910	1.10000000E+1	
291.992190	6.00000000E+0	
292.480470	9.00000000E+0	
292.968750	1.30000000E+1	
293.45700	9.00000000E+0	
293.945310	5.00000000E+0	
294.433590	7.00000000E+0	
294.921880	6.00000000E+0	
295.410160	1.00000000E+1	
295.898440	1.90000000E+1	
296.386720	8.00000000E+0	
296.87500	8.00000000E+0	
297.363280	1.20000000E+1	
297.851560	1.40000000E+1	
298.339840	9.00000000E+0	
298.828130	8.00000000E+0	
299.316410	8.00000000E+0	
299.804690	1.30000000E+1	
300.29300	7.00000000E+0	
300.781250	1.10000000E+1	
301.269530	1.20000000E+1	
301.757810	1.40000000E+1	
302.246090	1.20000000E+1	
302.734380	1.30000000E+1	
303.222660	1.30000000E+1	
303.710940	1.50000000E+1	
304.199220	1.20000000E+1	
304.687500	1.10000000E+1	
305.175780	5.00000000E+0	
305.664060	9.00000000E+0	
306.152340	1.30000000E+1	
306.640630	7.00000000E+0	
307.128910	1.30000000E+1	
307.617190	6.00000000E+0	
308.105470	1.40000000E+1	
308.593750	1.50000000E+1	
309.08200	1.00000000E+1	
309.570310	7.00000000E+0	
310.058590	9.00000000E+0	
310.546880	1.00000000E+1	
311.035160	5.00000000E+0	
311.523440	1.00000000E+1	
312.011720	9.00000000E+0	
312.500	1.00000000E+1	
312.988280	1.30000000E+1	
313.476560	1.00000000E+1	
313.964840	6.00000000E+0	
314.453130	7.00000000E+0	
314.941410	1.20000000E+1	
315.429690	1.50000000E+1	
315.91800	8.00000000E+0	
316.406250	1.00000000E+1	
316.894530	9.00000000E+0	
317.382810	1.30000000E+1	
317.871090	1.10000000E+1	
318.359380	1.00000000E+1	
318.847660	6.00000000E+0	
319.335940	8.00000000E+0	
319.824220	1.30000000E+1	
320.312500	1.70000000E+1	
320.800780	7.00000000E+0	
321.289060	8.00000000E+0	
321.777340	1.00000000E+1	
322.265630	1.40000000E+1	
322.753910	1.40000000E+1	
323.242190	1.00000000E+1	
323.730470	6.00000000E+0	
324.218750	1.30000000E+1	
324.70700	1.20000000E+1	
325.195310	6.00000000E+0	
325.683590	1.40000000E+1	
326.171880	1.50000000E+1	
326.660160	9.00000000E+0	
327.148440	1.20000000E+1	
327.636720	1.20000000E+1	
328.12500	1.30000000E+1	
328.613280	1.20000000E+1	
329.101560	9.00000000E+0	
329.589840	1.10000000E+1	
330.078130	1.20000000E+1	
330.566410	1.00000000E+1	
331.054690	1.00000000E+1	
331.54300	1.30000000E+1	
332.031250	4.00000000E+0	
332.519530	8.00000000E+0	
333.007810	1.00000000E+1	
333.496090	1.20000000E+1	
333.984380	1.20000000E+1	
334.472660	1.10000000E+1	
334.960940	4.00000000E+0	
335.449220	1.00000000E+1	
335.937500	3.00000000E+0	
336.425780	9.00000000E+0	
336.914060	9.00000000E+0	
337.402340	1.30000000E+1	
337.890630	1.50000000E+1	
338.378910	1.70000000E+1	
338.867190	6.00000000E+0	
339.355470	1.50000000E+1	
339.843750	1.50000000E+1	
340.33200	9.00000000E+0	
340.820310	6.00000000E+0	
341.308590	8.00000000E+0	
341.796880	1.10000000E+1	
342.285160	3.00000000E+0	
342.773440	4.00000000E+0	
343.261720	9.00000000E+0	
343.7500	1.10000000E+1	
344.238280	7.00000000E+0	
344.726560	9.00000000E+0	
345.214840	1.20000000E+1	
345.703130	1.00000000E+1	
346.191410	9.00000000E+0	
346.679690	1.10000000E+1	
347.16800	1.20000000E+1	
347.656250	9.00000000E+0	
348.144530	1.00000000E+1	
348.632810	9.00000000E+0	
349.121090	1.80000000E+1	
349.609380	5.00000000E+0	
350.097660	1.00000000E+1	
350.585940	7.00000000E+0	
351.074220	1.00000000E+1	
351.562500	8.00000000E+0	
352.050780	9.00000000E+0	
352.539060	7.00000000E+0	
353.027340	5.00000000E+0	
353.515630	8.00000000E+0	
354.003910	7.00000000E+0	
354.492190	5.00000000E+0	
354.980470	7.00000000E+0	
355.468750	7.00000000E+0	
355.95700	7.00000000E+0	
356.445310	1.00000000E+1	
356.933590	1.10000000E+1	
357.421880	9.00000000E+0	
357.910160	1.00000000E+1	
358.398440	5.00000000E+0	
358.886720	6.00000000E+0	
359.37500	5.00000000E+0	
359.863280	7.00000000E+0	
360.351560	1.00000000E+1	
360.839840	1.10000000E+1	
361.328130	1.20000000E+1	
361.816410	1.00000000E+1	
362.304690	1.00000000E+1	
362.79300	8.00000000E+0	
363.281250	1.20000000E+1	
363.769530	6.00000000E+0	
364.257810	1.10000000E+1	
364.746090	1.10000000E+1	
365.234380	1.20000000E+1	
365.722660	1.00000000E+1	
366.210940	3.00000000E+0	
366.699220	5.00000000E+0	
367.187500	8.00000000E+0	
367.675780	1.20000000E+1	
368.164060	8.00000000E+0	
368.652340	4.00000000E+0	
369.140630	9.00000000E+0	
369.628910	7.00000000E+0	
370.117190	8.00000000E+0	
370.605470	9.00000000E+0	
371.093750	1.10000000E+1	
371.58200	1.10000000E+1	
372.070310	5.00000000E+0	
372.558590	1.00000000E+1	
373.046880	1.00000000E+1	
373.535160	9.00000000E+0	
374.023440	8.00000000E+0	
374.511720	9.00000000E+0	
375.00	7.00000000E+0	
375.488280	8.00000000E+0	
375.976560	8.00000000E+0	
376.464840	1.00000000E+1	
376.953130	1.10000000E+1	
377.441410	1.20000000E+1	
377.929690	9.00000000E+0	
378.41800	8.00000000E+0	
378.906250	1.30000000E+1	
379.394530	6.00000000E+0	
379.882810	8.00000000E+0	
380.371090	8.00000000E+0	
380.859380	1.10000000E+1	
381.347660	6.00000000E+0	
381.835940	7.00000000E+0	
382.324220	6.00000000E+0	
382.812500	9.00000000E+0	
383.300780	1.20000000E+1	
383.789060	8.00000000E+0	
384.277340	5.00000000E+0	
384.765630	8.00000000E+0	
385.253910	4.00000000E+0	
385.742190	1.50000000E+1	
386.230470	6.00000000E+0	
386.718750	1.50000000E+1	
387.20700	8.00000000E+0	
387.695310	1.10000000E+1	
388.183590	5.00000000E+0	
388.671880	1.30000000E+1	
389.160160	4.00000000E+0	
389.648440	1.20000000E+1	
390.136720	8.00000000E+0	
390.62500	8.00000000E+0	
391.113280	8.00000000E+0	
391.601560	9.00000000E+0	
392.089840	3.00000000E+0	
392.578130	8.00000000E+0	
393.066410	1.30000000E+1	
393.554690	6.00000000E+0	
394.04300	9.00000000E+0	
394.531250	9.00000000E+0	
395.019530	4.00000000E+0	
395.507810	8.00000000E+0	
395.996090	6.00000000E+0	
396.484380	9.00000000E+0	
396.972660	1.00000000E+1	
397.460940	8.00000000E+0	
397.949220	1.40000000E+1	
398.437500	1.40000000E+1	
398.925780	8.00000000E+0	
399.414060	1.00000000E+1	
399.902340	1.40000000E+1	
400.390630	1.30000000E+1	
400.878910	7.00000000E+0	
401.367190	1.20000000E+1	
401.855470	8.00000000E+0	
402.343750	1.20000000E+1	
402.83200	7.00000000E+0	
403.320310	7.00000000E+0	
403.808590	8.00000000E+0	
404.296880	1.00000000E+1	
404.785160	9.00000000E+0	
405.273440	5.00000000E+0	
405.761720	1.00000000E+1	
406.2500	6.00000000E+0	
406.738280	5.00000000E+0	
407.226560	7.00000000E+0	
407.714840	8.00000000E+0	
408.203130	1.10000000E+1	
408.691410	7.00000000E+0	
409.179690	6.00000000E+0	
409.66800	8.00000000E+0	
410.156250	7.00000000E+0	
410.644530	1.10000000E+1	
411.132810	1.30000000E+1	
411.621090	8.00000000E+0	
412.109380	7.00000000E+0	
412.597660	9.00000000E+0	
413.085940	4.00000000E+0	
413.574220	1.00000000E+1	
414.062500	9.00000000E+0	
414.550780	9.00000000E+0	
415.039060	6.00000000E+0	
415.527340	3.00000000E+0	
416.015630	7.00000000E+0	
416.503910	8.00000000E+0	
416.992190	9.00000000E+0	
417.480470	7.00000000E+0	
417.968750	5.00000000E+0	
418.45700	1.10000000E+1	
418.945310	9.00000000E+0	
419.433590	5.00000000E+0	
419.921880	3.00000000E+0	
420.410160	9.00000000E+0	
420.898440	1.10000000E+1	
421.386720	5.00000000E+0	
421.87500	1.00000000E+1	
422.363280	9.00000000E+0	
422.851560	9.00000000E+0	
423.339840	6.00000000E+0	
423.828130	1.10000000E+1	
424.316410	1.00000000E+1	
424.804690	8.00000000E+0	
425.29300	1.20000000E+1	
425.781250	1.10000000E+1	
426.269530	6.00000000E+0	
426.757810	7.00000000E+0	
427.246090	7.00000000E+0	
427.734380	7.00000000E+0	
428.222660	1.00000000E+1	
428.710940	6.00000000E+0	
429.199220	5.00000000E+0	
429.687500	9.00000000E+0	
430.175780	6.00000000E+0	
430.664060	5.00000000E+0	
431.152340	4.00000000E+0	
431.640630	9.00000000E+0	
432.128910	6.00000000E+0	
432.617190	6.00000000E+0	
433.105470	1.10000000E+1	
433.593750	1.10000000E+1	
434.08200	7.00000000E+0	
434.570310	8.00000000E+0	
435.058590	8.00000000E+0	
435.546880	7.00000000E+0	
436.035160	1.00000000E+1	
436.523440	2.00000000E+0	
437.011720	4.00000000E+0	
437.500	1.20000000E+1	
437.988280	6.00000000E+0	
438.476560	3.00000000E+0	
438.964840	6.00000000E+0	
439.453130	7.00000000E+0	
439.941410	1.00000000E+1	
440.429690	8.00000000E+0	
440.91800	1.20000000E+1	
441.406250	1.30000000E+1	
441.894530	8.00000000E+0	
442.382810	9.00000000E+0	
442.871090	1.10000000E+1	
443.359380	8.00000000E+0	
443.847660	4.00000000E+0	
444.335940	6.00000000E+0	
444.824220	4.00000000E+0	
445.312500	4.00000000E+0	
445.800780	6.00000000E+0	
446.289060	9.00000000E+0	
446.777340	6.00000000E+0	
447.265630	1.20000000E+1	
447.753910	8.00000000E+0	
448.242190	1.20000000E+1	
448.730470	1.30000000E+1	
449.218750	4.00000000E+0	
449.70700	5.00000000E+0	
450.195310	1.20000000E+1	
450.683590	9.00000000E+0	
451.171880	9.00000000E+0	
451.660160	7.00000000E+0	
452.148440	6.00000000E+0	
452.636720	1.20000000E+1	
453.12500	8.00000000E+0	
453.613280	6.00000000E+0	
454.101560	8.00000000E+0	
454.589840	7.00000000E+0	
455.078130	8.00000000E+0	
455.566410	6.00000000E+0	
456.054690	1.00000000E+1	
456.54300	5.00000000E+0	
457.031250	8.00000000E+0	
457.519530	9.00000000E+0	
458.007810	6.00000000E+0	
458.496090	6.00000000E+0	
458.984380	1.00000000E+1	
459.472660	6.00000000E+0	
459.960940	1.20000000E+1	
460.449220	5.00000000E+0	
460.937500	3.00000000E+0	
461.425780	6.00000000E+0	
461.914060	5.00000000E+0	
462.402340	8.00000000E+0	
462.890630	1.00000000E+1	
463.378910	4.00000000E+0	
463.867190	7.00000000E+0	
464.355470	6.00000000E+0	
464.843750	1.00000000E+1	
465.33200	7.00000000E+0	
465.820310	4.00000000E+0	
466.308590	1.00000000E+1	
466.796880	7.00000000E+0	
467.285160	8.00000000E+0	
467.773440	7.00000000E+0	
468.261720	6.00000000E+0	
468.7500	9.00000000E+0	
469.238280	6.00000000E+0	
469.726560	6.00000000E+0	
470.214840	8.00000000E+0	
470.703130	3.00000000E+0	
471.191410	6.00000000E+0	
471.679690	6.00000000E+0	
472.16800	7.00000000E+0	
472.656250	9.00000000E+0	
473.144530	8.00000000E+0	
473.632810	9.00000000E+0	
474.121090	3.00000000E+0	
474.609380	1.00000000E+1	
475.097660	5.00000000E+0	
475.585940	6.00000000E+0	
476.074220	4.00000000E+0	
476.562500	5.00000000E+0	
477.050780	4.00000000E+0	
477.539060	1.30000000E+1	
478.027340	1.50000000E+1	
478.515630	9.00000000E+0	
479.003910	6.00000000E+0	
479.492190	7.00000000E+0	
479.980470	8.00000000E+0	
480.468750	4.00000000E+0	
480.95700	3.00000000E+0	
481.445310	7.00000000E+0	
481.933590	8.00000000E+0	
482.421880	6.00000000E+0	
482.910160	6.00000000E+0	
483.398440	7.00000000E+0	
483.886720	7.00000000E+0	
484.37500	3.00000000E+0	
484.863280	5.00000000E+0	
485.351560	9.00000000E+0	
485.839840	6.00000000E+0	
486.328130	3.00000000E+0	
486.816410	8.00000000E+0	
487.304690	8.00000000E+0	
487.79300	2.00000000E+0	
488.281250	7.00000000E+0	
488.769530	8.00000000E+0	
489.257810	3.00000000E+0	
489.746090	2.00000000E+0	
490.234380	1.10000000E+1	
490.722660	9.00000000E+0	
491.210940	6.00000000E+0	
491.699220	1.10000000E+1	
492.187500	6.00000000E+0	
492.675780	7.00000000E+0	
493.164060	9.00000000E+0	
493.652340	7.00000000E+0	
494.140630	4.00000000E+0	
494.628910	7.00000000E+0	
495.117190	8.00000000E+0	
495.605470	7.00000000E+0	
496.093750	3.00000000E+0	
496.58200	5.00000000E+0	
497.070310	5.00000000E+0	
497.558590	5.00000000E+0	
498.046880	3.00000000E+0	
498.535160	7.00000000E+0	
499.023440	4.00000000E+0	
499.511720	9.00000000E+0	
500.00	3.00000000E+0	
500.488280	7.00000000E+0	
500.976560	6.00000000E+0	
501.464840	4.00000000E+0	
501.953130	7.00000000E+0	
502.441410	4.00000000E+0	
502.929690	1.00000000E+0	
503.41800	8.00000000E+0	
503.906250	7.00000000E+0	
504.394530	5.00000000E+0	
504.882810	6.00000000E+0	
505.371090	1.20000000E+1	
505.859380	5.00000000E+0	
506.347660	1.30000000E+1	
506.835940	6.00000000E+0	
507.324220	2.00000000E+0	
507.812500	1.30000000E+1	
508.300780	4.00000000E+0	
508.789060	1.40000000E+1	
509.277340	1.20000000E+1	
509.765630	4.00000000E+0	
510.253910	9.00000000E+0	
510.742190	8.00000000E+0	
511.230470	5.00000000E+0	
511.718750	1.10000000E+1	
512.20700	6.00000000E+0	
512.695310	3.00000000E+0	
513.183590	9.00000000E+0	
513.671880	4.00000000E+0	
514.160160	6.00000000E+0	
514.648440	8.00000000E+0	
515.136720	5.00000000E+0	
515.62500	7.00000000E+0	
516.113280	2.00000000E+0	
516.601560	4.00000000E+0	
517.089840	3.00000000E+0	
517.578130	5.00000000E+0	
518.066410	5.00000000E+0	
518.554690	8.00000000E+0	
519.04300	8.00000000E+0	
519.531250	3.00000000E+0	
520.019530	6.00000000E+0	
520.507810	8.00000000E+0	
520.996090	4.00000000E+0	
521.484380	6.00000000E+0	
521.972660	5.00000000E+0	
522.460940	8.00000000E+0	
522.949220	6.00000000E+0	
523.437500	9.00000000E+0	
523.925780	7.00000000E+0	
524.414060	5.00000000E+0	
524.902340	5.00000000E+0	
525.390630	1.00000000E+0	
525.878910	9.00000000E+0	
526.367190	7.00000000E+0	
526.855470	9.00000000E+0	
527.343750	1.10000000E+1	
527.83200	5.00000000E+0	
528.320310	7.00000000E+0	
528.808590	5.00000000E+0	
529.296880	4.00000000E+0	
529.785160	6.00000000E+0	
530.273440	5.00000000E+0	
530.761720	9.00000000E+0	
531.2500	7.00000000E+0	
531.738280	1.10000000E+1	
532.226560	4.00000000E+0	
532.714840	4.00000000E+0	
533.203130	8.00000000E+0	
533.691410	6.00000000E+0	
534.179690	8.00000000E+0	
534.66800	9.00000000E+0	
535.156250	5.00000000E+0	
535.644530	7.00000000E+0	
536.132810	5.00000000E+0	
536.621090	8.00000000E+0	
537.109380	9.00000000E+0	
537.597660	6.00000000E+0	
538.085940	7.00000000E+0	
538.574220	1.00000000E+1	
539.062500	5.00000000E+0	
539.550780	8.00000000E+0	
540.039060	5.00000000E+0	
540.527340	8.00000000E+0	
541.015630	3.00000000E+0	
541.503910	7.00000000E+0	
541.992190	4.00000000E+0	
542.480470	1.20000000E+1	
542.968750	7.00000000E+0	
543.45700	7.00000000E+0	
543.945310	4.00000000E+0	
544.433590	4.00000000E+0	
544.921880	7.00000000E+0	
545.410160	4.00000000E+0	
545.898440	5.00000000E+0	
546.386720	9.00000000E+0	
546.87500	5.00000000E+0	
547.363280	3.00000000E+0	
547.851560	1.50000000E+1	
548.339840	4.00000000E+0	
548.828130	6.00000000E+0	
549.316410	3.00000000E+0	
549.804690	1.00000000E+1	
550.29300	3.00000000E+0	
550.781250	7.00000000E+0	
551.269530	5.00000000E+0	
551.757810	9.00000000E+0	
552.246090	9.00000000E+0	
552.734380	1.50000000E+1	
553.222660	3.00000000E+0	
553.710940	8.00000000E+0	
554.199220	2.00000000E+0	
554.687500	7.00000000E+0	
555.175780	6.00000000E+0	
555.664060	5.00000000E+0	
556.152340	6.00000000E+0	
556.640630	6.00000000E+0	
557.128910	9.00000000E+0	
557.617190	9.00000000E+0	
558.105470	8.00000000E+0	
558.593750	7.00000000E+0	
559.08200	3.00000000E+0	
559.570310	8.00000000E+0	
560.058590	3.00000000E+0	
560.546880	7.00000000E+0	
561.035160	5.00000000E+0	
561.523440	5.00000000E+0	
562.011720	4.00000000E+0	
562.500	9.00000000E+0	
562.988280	6.00000000E+0	
563.476560	9.00000000E+0	
563.964840	7.00000000E+0	
564.453130	4.00000000E+0	
564.941410	9.00000000E+0	
565.429690	5.00000000E+0	
565.91800	5.00000000E+0	
566.406250	8.00000000E+0	
566.894530	5.00000000E+0	
567.382810	6.00000000E+0	
567.871090	9.00000000E+0	
568.359380	3.00000000E+0	
568.847660	5.00000000E+0	
569.335940	8.00000000E+0	
569.824220	4.00000000E+0	
570.312500	2.00000000E+0	
570.800780	3.00000000E+0	
571.289060	7.00000000E+0	
571.777340	2.00000000E+0	
572.265630	6.00000000E+0	
572.753910	4.00000000E+0	
573.242190	6.00000000E+0	
573.730470	8.00000000E+0	
574.218750	4.00000000E+0	
574.70700	6.00000000E+0	
575.195310	5.00000000E+0	
575.683590	2.00000000E+0	
576.171880	9.00000000E+0	
576.660160	6.00000000E+0	
577.148440	8.00000000E+0	
577.636720	5.00000000E+0	
578.12500	2.00000000E+0	
578.613280	5.00000000E+0	
579.101560	4.00000000E+0	
579.589840	7.00000000E+0	
580.078130	6.00000000E+0	
580.566410	4.00000000E+0	
581.054690	9.00000000E+0	
581.54300	6.00000000E+0	
582.031250	8.00000000E+0	
582.519530	8.00000000E+0	
583.007810	1.10000000E+1	
583.496090	9.00000000E+0	
583.984380	8.00000000E+0	
584.472660	3.00000000E+0	
584.960940	1.00000000E+0	
585.449220	6.00000000E+0	
585.937500	6.00000000E+0	
586.425780	4.00000000E+0	
586.914060	3.00000000E+0	
587.402340	7.00000000E+0	
587.890630	5.00000000E+0	
588.378910	7.00000000E+0	
588.867190	5.00000000E+0	
589.355470	3.00000000E+0	
589.843750	2.00000000E+0	
590.33200	5.00000000E+0	
590.820310	5.00000000E+0	
591.308590	6.00000000E+0	
591.796880	6.00000000E+0	
592.285160	4.00000000E+0	
592.773440	5.00000000E+0	
593.261720	8.00000000E+0	
593.7500	3.00000000E+0	
594.238280	3.00000000E+0	
594.726560	6.00000000E+0	
595.214840	1.00000000E+1	
595.703130	7.00000000E+0	
596.191410	8.00000000E+0	
596.679690	8.00000000E+0	
597.16800	6.00000000E+0	
597.656250	3.00000000E+0	
598.144530	5.00000000E+0	
598.632810	4.00000000E+0	
599.121090	3.00000000E+0	
599.609380	4.00000000E+0	
600.097660	2.00000000E+0	
600.585940	2.00000000E+0	
601.074220	3.00000000E+0	
601.562500	2.00000000E+0	
602.050780	7.00000000E+0	
602.539060	5.00000000E+0	
603.027340	5.00000000E+0	
603.515630	5.00000000E+0	
604.003910	6.00000000E+0	
604.492190	1.00000000E+1	
604.980470	4.00000000E+0	
605.468750	5.00000000E+0	
605.95700	8.00000000E+0	
606.445310	7.00000000E+0	
606.933590	6.00000000E+0	
607.421880	4.00000000E+0	
607.910160	7.00000000E+0	
608.398440	3.00000000E+0	
608.886720	4.00000000E+0	
609.37500	7.00000000E+0	
609.863280	3.00000000E+0	
610.351560	7.00000000E+0	
610.839840	7.00000000E+0	
611.328130	6.00000000E+0	
611.816410	8.00000000E+0	
612.304690	1.40000000E+1	
612.79300	9.00000000E+0	
613.281250	4.00000000E+0	
613.769530	1.00000000E+0	
614.257810	8.00000000E+0	
614.746090	5.00000000E+0	
615.234380	5.00000000E+0	
615.722660	5.00000000E+0	
616.210940	6.00000000E+0	
616.699220	1.10000000E+1	
617.187500	5.00000000E+0	
617.675780	7.00000000E+0	
618.164060	6.00000000E+0	
618.652340	4.00000000E+0	
619.140630	1.10000000E+1	
619.628910	4.00000000E+0	
620.117190	3.00000000E+0	
620.605470	4.00000000E+0	
621.093750	6.00000000E+0	
621.58200	6.00000000E+0	
622.070310	8.00000000E+0	
622.558590	5.00000000E+0	
623.046880	7.00000000E+0	
623.535160	6.00000000E+0	
624.023440	4.00000000E+0	
624.511720	7.00000000E+0	
625.00	3.00000000E+0	
625.488280	4.00000000E+0	
625.976560	7.00000000E+0	
626.464840	4.00000000E+0	
626.953130	7.00000000E+0	
627.441410	5.00000000E+0	
627.929690	9.00000000E+0	
628.41800	3.00000000E+0	
628.906250	6.00000000E+0	
629.394530	2.00000000E+0	
629.882810	1.00000000E+1	
630.371090	2.00000000E+0	
630.859380	2.00000000E+0	
631.347660	7.00000000E+0	
631.835940	7.00000000E+0	
632.324220	9.00000000E+0	
632.812500	3.00000000E+0	
633.300780	0.00000000E+0	
633.789060	5.00000000E+0	
634.277340	5.00000000E+0	
634.765630	9.00000000E+0	
635.253910	4.00000000E+0	
635.742190	3.00000000E+0	
636.230470	4.00000000E+0	
636.718750	5.00000000E+0	
637.20700	5.00000000E+0	
637.695310	2.00000000E+0	
638.183590	4.00000000E+0	
638.671880	1.00000000E+0	
639.160160	6.00000000E+0	
639.648440	5.00000000E+0	
640.136720	6.00000000E+0	
640.62500	3.00000000E+0	
641.113280	6.00000000E+0	
641.601560	6.00000000E+0	
642.089840	5.00000000E+0	
642.578130	4.00000000E+0	
643.066410	1.00000000E+0	
643.554690	1.00000000E+1	
644.04300	5.00000000E+0	
644.531250	5.00000000E+0	
645.019530	4.00000000E+0	
645.507810	7.00000000E+0	
645.996090	2.00000000E+0	
646.484380	6.00000000E+0	
646.972660	7.00000000E+0	
647.460940	4.00000000E+0	
647.949220	6.00000000E+0	
648.437500	6.00000000E+0	
648.925780	6.00000000E+0	
649.414060	4.00000000E+0	
649.902340	9.00000000E+0	
650.390630	3.00000000E+0	
650.878910	5.00000000E+0	
651.367190	4.00000000E+0	
651.855470	6.00000000E+0	
652.343750	1.00000000E+0	
652.83200	7.00000000E+0	
653.320310	6.00000000E+0	
653.808590	6.00000000E+0	
654.296880	3.00000000E+0	
654.785160	8.00000000E+0	
655.273440	2.00000000E+0	
655.761720	8.00000000E+0	
656.2500	3.00000000E+0	
656.738280	4.00000000E+0	
657.226560	4.00000000E+0	
657.714840	5.00000000E+0	
658.203130	4.00000000E+0	
658.691410	3.00000000E+0	
659.179690	4.00000000E+0	
659.66800	6.00000000E+0	
660.156250	7.00000000E+0	
660.644530	5.00000000E+0	
661.132810	6.00000000E+0	
661.621090	7.00000000E+0	
662.109380	5.00000000E+0	
662.597660	7.00000000E+0	
663.085940	4.00000000E+0	
663.574220	7.00000000E+0	
664.062500	3.00000000E+0	
664.550780	7.00000000E+0	
665.039060	7.00000000E+0	
665.527340	8.00000000E+0	
666.015630	8.00000000E+0	
666.503910	4.00000000E+0	
666.992190	7.00000000E+0	
667.480470	1.00000000E+0	
667.968750	4.00000000E+0	
668.45700	4.00000000E+0	
668.945310	4.00000000E+0	
669.433590	3.00000000E+0	
669.921880	3.00000000E+0	
670.410160	2.00000000E+0	
670.898440	4.00000000E+0	
671.386720	9.00000000E+0	
671.87500	4.00000000E+0	
672.363280	6.00000000E+0	
672.851560	7.00000000E+0	
673.339840	7.00000000E+0	
673.828130	7.00000000E+0	
674.316410	4.00000000E+0	
674.804690	4.00000000E+0	
675.29300	4.00000000E+0	
675.781250	5.00000000E+0	
676.269530	6.00000000E+0	
676.757810	8.00000000E+0	
677.246090	8.00000000E+0	
677.734380	1.00000000E+0	
678.222660	4.00000000E+0	
678.710940	6.00000000E+0	
679.199220	8.00000000E+0	
679.687500	2.00000000E+0	
680.175780	3.00000000E+0	
680.664060	1.00000000E+0	
681.152340	3.00000000E+0	
681.640630	1.00000000E+0	
682.128910	7.00000000E+0	
682.617190	7.00000000E+0	
683.105470	4.00000000E+0	
683.593750	4.00000000E+0	
684.08200	4.00000000E+0	
684.570310	5.00000000E+0	
685.058590	4.00000000E+0	
685.546880	5.00000000E+0	
686.035160	4.00000000E+0	
686.523440	7.00000000E+0	
687.011720	6.00000000E+0	
687.500	6.00000000E+0	
687.988280	8.00000000E+0	
688.476560	3.00000000E+0	
688.964840	5.00000000E+0	
689.453130	6.00000000E+0	
689.941410	3.00000000E+0	
690.429690	5.00000000E+0	
690.91800	2.00000000E+0	
691.406250	4.00000000E+0	
691.894530	3.00000000E+0	
692.382810	3.00000000E+0	
692.871090	3.00000000E+0	
693.359380	7.00000000E+0	
693.847660	3.00000000E+0	
694.335940	5.00000000E+0	
694.824220	5.00000000E+0	
695.312500	5.00000000E+0	
695.800780	5.00000000E+0	
696.289060	4.00000000E+0	
696.777340	5.00000000E+0	
697.265630	3.00000000E+0	
697.753910	5.00000000E+0	
698.242190	2.00000000E+0	
698.730470	7.00000000E+0	
699.218750	2.00000000E+0	
699.70700	4.00000000E+0	
700.195310	7.00000000E+0	
700.683590	1.00000000E+0	
701.171880	3.00000000E+0	
701.660160	6.00000000E+0	
702.148440	2.00000000E+0	
702.636720	7.00000000E+0	
703.12500	3.00000000E+0	
703.613280	6.00000000E+0	
704.101560	6.00000000E+0	
704.589840	4.00000000E+0	
705.078130	4.00000000E+0	
705.566410	6.00000000E+0	
706.054690	5.00000000E+0	
706.54300	4.00000000E+0	
707.031250	3.00000000E+0	
707.519530	6.00000000E+0	
708.007810	2.00000000E+0	
708.496090	5.00000000E+0	
708.984380	7.00000000E+0	
709.472660	6.00000000E+0	
709.960940	3.00000000E+0	
710.449220	6.00000000E+0	
710.937500	3.00000000E+0	
711.425780	5.00000000E+0	
711.914060	5.00000000E+0	
712.402340	4.00000000E+0	
712.890630	9.00000000E+0	
713.378910	5.00000000E+0	
713.867190	4.00000000E+0	
714.355470	4.00000000E+0	
714.843750	3.00000000E+0	
715.33200	7.00000000E+0	
715.820310	5.00000000E+0	
716.308590	4.00000000E+0	
716.796880	4.00000000E+0	
717.285160	5.00000000E+0	
717.773440	8.00000000E+0	
718.261720	9.00000000E+0	
718.7500	2.00000000E+0	
719.238280	5.00000000E+0	
719.726560	5.00000000E+0	
720.214840	1.00000000E+1	
720.703130	8.00000000E+0	
721.191410	6.00000000E+0	
721.679690	5.00000000E+0	
722.16800	3.00000000E+0	
722.656250	5.00000000E+0	
723.144530	4.00000000E+0	
723.632810	7.00000000E+0	
724.121090	5.00000000E+0	
724.609380	4.00000000E+0	
725.097660	5.00000000E+0	
725.585940	4.00000000E+0	
726.074220	6.00000000E+0	
726.562500	3.00000000E+0	
727.050780	1.10000000E+1	
727.539060	3.00000000E+0	
728.027340	6.00000000E+0	
728.515630	2.00000000E+0	
729.003910	5.00000000E+0	
729.492190	3.00000000E+0	
729.980470	2.00000000E+0	
730.468750	4.00000000E+0	
730.95700	5.00000000E+0	
731.445310	2.00000000E+0	
731.933590	2.00000000E+0	
732.421880	0.00000000E+0	
732.910160	3.00000000E+0	
733.398440	9.00000000E+0	
733.886720	5.00000000E+0	
734.37500	2.00000000E+0	
734.863280	3.00000000E+0	
735.351560	5.00000000E+0	
735.839840	4.00000000E+0	
736.328130	4.00000000E+0	
736.816410	5.00000000E+0	
737.304690	3.00000000E+0	
737.79300	5.00000000E+0	
738.281250	3.00000000E+0	
738.769530	7.00000000E+0	
739.257810	5.00000000E+0	
739.746090	5.00000000E+0	
740.234380	6.00000000E+0	
740.722660	3.00000000E+0	
741.210940	4.00000000E+0	
741.699220	4.00000000E+0	
742.187500	2.00000000E+0	
742.675780	5.00000000E+0	
743.164060	7.00000000E+0	
743.652340	5.00000000E+0	
744.140630	7.00000000E+0	
744.628910	4.00000000E+0	
745.117190	2.00000000E+0	
745.605470	4.00000000E+0	
746.093750	4.00000000E+0	
746.58200	4.00000000E+0	
747.070310	3.00000000E+0	
747.558590	4.00000000E+0	
748.046880	6.00000000E+0	
748.535160	6.00000000E+0	
749.023440	2.00000000E+0	
749.511720	7.00000000E+0	
750.00	4.00000000E+0	
750.488280	2.00000000E+0	
750.976560	4.00000000E+0	
751.464840	2.00000000E+0	
751.953130	2.00000000E+0	
752.441410	1.00000000E+0	
752.929690	3.00000000E+0	
753.41800	2.00000000E+0	
753.906250	3.00000000E+0	
754.394530	5.00000000E+0	
754.882810	5.00000000E+0	
755.371090	4.00000000E+0	
755.859380	6.00000000E+0	
756.347660	2.00000000E+0	
756.835940	3.00000000E+0	
757.324220	2.00000000E+0	
757.812500	3.00000000E+0	
758.300780	5.00000000E+0	
758.789060	5.00000000E+0	
759.277340	4.00000000E+0	
759.765630	4.00000000E+0	
760.253910	3.00000000E+0	
760.742190	3.00000000E+0	
761.230470	8.00000000E+0	
761.718750	9.00000000E+0	
762.20700	2.00000000E+0	
762.695310	2.00000000E+0	
763.183590	3.00000000E+0	
763.671880	5.00000000E+0	
764.160160	4.00000000E+0	
764.648440	4.00000000E+0	
765.136720	7.00000000E+0	
765.62500	3.00000000E+0	
766.113280	5.00000000E+0	
766.601560	4.00000000E+0	
767.089840	8.00000000E+0	
767.578130	5.00000000E+0	
768.066410	2.00000000E+0	
768.554690	3.00000000E+0	
769.04300	7.00000000E+0	
769.531250	7.00000000E+0	
770.019530	4.00000000E+0	
770.507810	4.00000000E+0	
770.996090	5.00000000E+0	
771.484380	4.00000000E+0	
771.972660	3.00000000E+0	
772.460940	4.00000000E+0	
772.949220	5.00000000E+0	
773.437500	4.00000000E+0	
773.925780	0.00000000E+0	
774.414060	1.00000000E+0	
774.902340	1.00000000E+0	
775.390630	1.00000000E+0	
775.878910	1.00000000E+0	
776.367190	5.00000000E+0	
776.855470	4.00000000E+0	
777.343750	3.00000000E+0	
777.83200	2.00000000E+0	
778.320310	3.00000000E+0	
778.808590	3.00000000E+0	
779.296880	3.00000000E+0	
779.785160	5.00000000E+0	
780.273440	4.00000000E+0	
780.761720	2.00000000E+0	
781.2500	0.00000000E+0	
781.738280	2.00000000E+0	
782.226560	5.00000000E+0	
782.714840	2.00000000E+0	
783.203130	2.00000000E+0	
783.691410	1.00000000E+0	
784.179690	1.00000000E+0	
784.66800	2.00000000E+0	
785.156250	3.00000000E+0	
785.644530	4.00000000E+0	
786.132810	4.00000000E+0	
786.621090	7.00000000E+0	
787.109380	3.00000000E+0	
787.597660	5.00000000E+0	
788.085940	4.00000000E+0	
788.574220	5.00000000E+0	
789.062500	3.00000000E+0	
789.550780	5.00000000E+0	
790.039060	4.00000000E+0	
790.527340	2.00000000E+0	
791.015630	8.00000000E+0	
791.503910	4.00000000E+0	
791.992190	2.00000000E+0	
792.480470	4.00000000E+0	
792.968750	0.00000000E+0	
793.45700	9.00000000E+0	
793.945310	6.00000000E+0	
794.433590	4.00000000E+0	
794.921880	5.00000000E+0	
795.410160	6.00000000E+0	
795.898440	6.00000000E+0	
796.386720	4.00000000E+0	
796.87500	0.00000000E+0	
797.363280	4.00000000E+0	
797.851560	6.00000000E+0	
798.339840	3.00000000E+0	
798.828130	2.00000000E+0	
799.316410	6.00000000E+0	
799.804690	6.00000000E+0	
800.29300	8.00000000E+0	
800.781250	9.00000000E+0	
801.269530	1.00000000E+0	
801.757810	3.00000000E+0	
802.246090	3.00000000E+0	
802.734380	4.00000000E+0	
803.222660	6.00000000E+0	
803.710940	2.00000000E+0	
804.199220	6.00000000E+0	
804.687500	3.00000000E+0	
805.175780	2.00000000E+0	
805.664060	4.00000000E+0	
806.152340	4.00000000E+0	
806.640630	9.00000000E+0	
807.128910	4.00000000E+0	
807.617190	2.00000000E+0	
808.105470	4.00000000E+0	
808.593750	4.00000000E+0	
809.08200	6.00000000E+0	
809.570310	6.00000000E+0	
810.058590	5.00000000E+0	
810.546880	5.00000000E+0	
811.035160	6.00000000E+0	
811.523440	2.00000000E+0	
812.011720	7.00000000E+0	
812.500	4.00000000E+0	
812.988280	3.00000000E+0	
813.476560	2.00000000E+0	
813.964840	3.00000000E+0	
814.453130	3.00000000E+0	
814.941410	2.00000000E+0	
815.429690	4.00000000E+0	
815.91800	4.00000000E+0	
816.406250	4.00000000E+0	
816.894530	5.00000000E+0	
817.382810	7.00000000E+0	
817.871090	4.00000000E+0	
818.359380	2.00000000E+0	
818.847660	3.00000000E+0	
819.335940	1.00000000E+0	
819.824220	4.00000000E+0	
820.312500	3.00000000E+0	
820.800780	5.00000000E+0	
821.289060	1.00000000E+0	
821.777340	2.00000000E+0	
822.265630	4.00000000E+0	
822.753910	5.00000000E+0	
823.242190	3.00000000E+0	
823.730470	5.00000000E+0	
824.218750	3.00000000E+0	
824.70700	5.00000000E+0	
825.195310	5.00000000E+0	
825.683590	2.00000000E+0	
826.171880	3.00000000E+0	
826.660160	2.00000000E+0	
827.148440	4.00000000E+0	
827.636720	4.00000000E+0	
828.12500	2.00000000E+0	
828.613280	4.00000000E+0	
829.101560	4.00000000E+0	
829.589840	2.00000000E+0	
830.078130	4.00000000E+0	
830.566410	3.00000000E+0	
831.054690	2.00000000E+0	
831.54300	6.00000000E+0	
832.031250	3.00000000E+0	
832.519530	4.00000000E+0	
833.007810	1.00000000E+0	
833.496090	3.00000000E+0	
833.984380	4.00000000E+0	
834.472660	1.00000000E+0	
834.960940	1.00000000E+0	
835.449220	1.00000000E+0	
835.937500	2.00000000E+0	
836.425780	2.00000000E+0	
836.914060	4.00000000E+0	
837.402340	4.00000000E+0	
837.890630	4.00000000E+0	
838.378910	2.00000000E+0	
838.867190	3.00000000E+0	
839.355470	4.00000000E+0	
839.843750	4.00000000E+0	
840.33200	1.00000000E+0	
840.820310	4.00000000E+0	
841.308590	7.00000000E+0	
841.796880	7.00000000E+0	
842.285160	5.00000000E+0	
842.773440	3.00000000E+0	
843.261720	6.00000000E+0	
843.7500	4.00000000E+0	
844.238280	4.00000000E+0	
844.726560	3.00000000E+0	
845.214840	2.00000000E+0	
845.703130	6.00000000E+0	
846.191410	5.00000000E+0	
846.679690	8.00000000E+0	
847.16800	4.00000000E+0	
847.656250	2.00000000E+0	
848.144530	3.00000000E+0	
848.632810	2.00000000E+0	
849.121090	1.00000000E+0	
849.609380	3.00000000E+0	
850.097660	6.00000000E+0	
850.585940	0.00000000E+0	
851.074220	5.00000000E+0	
851.562500	0.00000000E+0	
852.050780	6.00000000E+0	
852.539060	3.00000000E+0	
853.027340	4.00000000E+0	
853.515630	4.00000000E+0	
854.003910	1.00000000E+0	
854.492190	2.00000000E+0	
854.980470	4.00000000E+0	
855.468750	6.00000000E+0	
855.95700	5.00000000E+0	
856.445310	5.00000000E+0	
856.933590	3.00000000E+0	
857.421880	3.00000000E+0	
857.910160	0.00000000E+0	
858.398440	0.00000000E+0	
858.886720	4.00000000E+0	
859.37500	2.00000000E+0	
859.863280	4.00000000E+0	
860.351560	5.00000000E+0	
860.839840	2.00000000E+0	
861.328130	3.00000000E+0	
861.816410	0.00000000E+0	
862.304690	5.00000000E+0	
862.79300	6.00000000E+0	
863.281250	4.00000000E+0	
863.769530	3.00000000E+0	
864.257810	2.00000000E+0	
864.746090	2.00000000E+0	
865.234380	1.00000000E+0	
865.722660	3.00000000E+0	
866.210940	5.00000000E+0	
866.699220	2.00000000E+0	
867.187500	4.00000000E+0	
867.675780	2.00000000E+0	
868.164060	3.00000000E+0	
868.652340	3.00000000E+0	
869.140630	1.00000000E+0	
869.628910	4.00000000E+0	
870.117190	3.00000000E+0	
870.605470	4.00000000E+0	
871.093750	7.00000000E+0	
871.58200	2.00000000E+0	
872.070310	3.00000000E+0	
872.558590	5.00000000E+0	
873.046880	3.00000000E+0	
873.535160	6.00000000E+0	
874.023440	4.00000000E+0	
874.511720	2.00000000E+0	
875.00	5.00000000E+0	
875.488280	4.00000000E+0	
875.976560	4.00000000E+0	
876.464840	3.00000000E+0	
876.953130	5.00000000E+0	
877.441410	2.00000000E+0	
877.929690	7.00000000E+0	
878.41800	2.00000000E+0	
878.906250	3.00000000E+0	
879.394530	3.00000000E+0	
879.882810	4.00000000E+0	
880.371090	6.00000000E+0	
880.859380	1.30000000E+1	
881.347660	3.00000000E+0	
881.835940	2.00000000E+0	
882.324220	8.00000000E+0	
882.812500	1.00000000E+0	
883.300780	3.00000000E+0	
883.789060	7.00000000E+0	
884.277340	4.00000000E+0	
884.765630	5.00000000E+0	
885.253910	1.00000000E+0	
885.742190	0.00000000E+0	
886.230470	3.00000000E+0	
886.718750	1.00000000E+0	
887.20700	2.00000000E+0	
887.695310	4.00000000E+0	
888.183590	2.00000000E+0	
888.671880	1.00000000E+0	
889.160160	3.00000000E+0	
889.648440	2.00000000E+0	
890.136720	6.00000000E+0	
890.62500	1.00000000E+0	
891.113280	7.00000000E+0	
891.601560	1.00000000E+0	
892.089840	4.00000000E+0	
892.578130	1.00000000E+0	
893.066410	1.00000000E+0	
893.554690	4.00000000E+0	
894.04300	1.00000000E+0	
894.531250	5.00000000E+0	
895.019530	2.00000000E+0	
895.507810	6.00000000E+0	
895.996090	4.00000000E+0	
896.484380	5.00000000E+0	
896.972660	8.00000000E+0	
897.460940	3.00000000E+0	
897.949220	4.00000000E+0	
898.437500	4.00000000E+0	
898.925780	7.00000000E+0	
899.414060	2.00000000E+0	
899.902340	4.00000000E+0	
900.390630	4.00000000E+0	
900.878910	2.00000000E+0	
901.367190	0.00000000E+0	
901.855470	1.00000000E+0	
902.343750	2.00000000E+0	
902.83200	2.00000000E+0	
903.320310	7.00000000E+0	
903.808590	2.00000000E+0	
904.296880	2.00000000E+0	
904.785160	0.00000000E+0	
905.273440	4.00000000E+0	
905.761720	1.00000000E+0	
906.2500	7.00000000E+0	
906.738280	1.00000000E+0	
907.226560	5.00000000E+0	
907.714840	5.00000000E+0	
908.203130	5.00000000E+0	
908.691410	2.00000000E+0	
909.179690	2.00000000E+0	
909.66800	5.00000000E+0	
910.156250	3.00000000E+0	
910.644530	6.00000000E+0	
911.132810	2.00000000E+0	
911.621090	4.00000000E+0	
912.109380	4.00000000E+0	
912.597660	4.00000000E+0	
913.085940	7.00000000E+0	
913.574220	1.00000000E+0	
914.062500	1.00000000E+0	
914.550780	3.00000000E+0	
915.039060	5.00000000E+0	
915.527340	5.00000000E+0	
916.015630	7.00000000E+0	
916.503910	4.00000000E+0	
916.992190	4.00000000E+0	
917.480470	2.00000000E+0	
917.968750	4.00000000E+0	
918.45700	3.00000000E+0	
918.945310	5.00000000E+0	
919.433590	3.00000000E+0	
919.921880	9.00000000E+0	
920.410160	4.00000000E+0	
920.898440	2.00000000E+0	
921.386720	3.00000000E+0	
921.87500	4.00000000E+0	
922.363280	4.00000000E+0	
922.851560	3.00000000E+0	
923.339840	2.00000000E+0	
923.828130	3.00000000E+0	
924.316410	4.00000000E+0	
924.804690	2.00000000E+0	
925.29300	4.00000000E+0	
925.781250	4.00000000E+0	
926.269530	6.00000000E+0	
926.757810	2.00000000E+0	
927.246090	3.00000000E+0	
927.734380	1.00000000E+0	
928.222660	4.00000000E+0	
928.710940	2.00000000E+0	
929.199220	7.00000000E+0	
929.687500	4.00000000E+0	
930.175780	3.00000000E+0	
930.664060	2.00000000E+0	
931.152340	4.00000000E+0	
931.640630	4.00000000E+0	
932.128910	8.00000000E+0	
932.617190	2.00000000E+0	
933.105470	5.00000000E+0	
933.593750	3.00000000E+0	
934.08200	5.00000000E+0	
934.570310	7.00000000E+0	
935.058590	3.00000000E+0	
935.546880	4.00000000E+0	
936.035160	2.00000000E+0	
936.523440	4.00000000E+0	
937.011720	3.00000000E+0	
937.500	5.00000000E+0	
937.988280	4.00000000E+0	
938.476560	3.00000000E+0	
938.964840	2.00000000E+0	
939.453130	3.00000000E+0	
939.941410	2.00000000E+0	
940.429690	5.00000000E+0	
940.91800	4.00000000E+0	
941.406250	1.00000000E+0	
941.894530	1.00000000E+0	
942.382810	4.00000000E+0	
942.871090	5.00000000E+0	
943.359380	5.00000000E+0	
943.847660	4.00000000E+0	
944.335940	6.00000000E+0	
944.824220	1.00000000E+0	
945.312500	2.00000000E+0	
945.800780	5.00000000E+0	
946.289060	4.00000000E+0	
946.777340	3.00000000E+0	
947.265630	3.00000000E+0	
947.753910	4.00000000E+0	
948.242190	1.00000000E+0	
948.730470	2.00000000E+0	
949.218750	4.00000000E+0	
949.70700	2.00000000E+0	
950.195310	3.00000000E+0	
950.683590	3.00000000E+0	
951.171880	4.00000000E+0	
951.660160	6.00000000E+0	
952.148440	2.00000000E+0	
952.636720	4.00000000E+0	
953.12500	2.00000000E+0	
953.613280	3.00000000E+0	
954.101560	2.00000000E+0	
954.589840	1.00000000E+0	
955.078130	1.00000000E+0	
955.566410	3.00000000E+0	
956.054690	5.00000000E+0	
956.54300	4.00000000E+0	
957.031250	3.00000000E+0	
957.519530	1.00000000E+0	
958.007810	1.00000000E+0	
958.496090	3.00000000E+0	
958.984380	2.00000000E+0	
959.472660	3.00000000E+0	
959.960940	2.00000000E+0	
960.449220	3.00000000E+0	
960.937500	4.00000000E+0	
961.425780	4.00000000E+0	
961.914060	0.00000000E+0	
962.402340	6.00000000E+0	
962.890630	4.00000000E+0	
963.378910	4.00000000E+0	
963.867190	2.00000000E+0	
964.355470	2.00000000E+0	
964.843750	2.00000000E+0	
965.33200	2.00000000E+0	
965.820310	4.00000000E+0	
966.308590	1.00000000E+0	
966.796880	5.00000000E+0	
967.285160	3.00000000E+0	
967.773440	3.00000000E+0	
968.261720	4.00000000E+0	
968.7500	6.00000000E+0	
969.238280	3.00000000E+0	
969.726560	5.00000000E+0	
970.214840	3.00000000E+0	
970.703130	4.00000000E+0	
971.191410	5.00000000E+0	
971.679690	3.00000000E+0	
972.16800	3.00000000E+0	
972.656250	6.00000000E+0	
973.144530	5.00000000E+0	
973.632810	5.00000000E+0	
974.121090	0.00000000E+0	
974.609380	3.00000000E+0	
975.097660	2.00000000E+0	
975.585940	3.00000000E+0	
976.074220	3.00000000E+0	
976.562500	3.00000000E+0	
977.050780	3.00000000E+0	
977.539060	3.00000000E+0	
978.027340	1.00000000E+0	
978.515630	0.00000000E+0	
979.003910	2.00000000E+0	
979.492190	3.00000000E+0	
979.980470	5.00000000E+0	
980.468750	7.00000000E+0	
980.95700	2.00000000E+0	
981.445310	1.00000000E+0	
981.933590	1.00000000E+0	
982.421880	4.00000000E+0	
982.910160	3.00000000E+0	
983.398440	3.00000000E+0	
983.886720	1.00000000E+0	
984.37500	6.00000000E+0	
984.863280	4.00000000E+0	
985.351560	4.00000000E+0	
985.839840	1.00000000E+0	
986.328130	5.00000000E+0	
986.816410	3.00000000E+0	
987.304690	4.00000000E+0	
987.79300	1.00000000E+0	
988.281250	1.00000000E+0	
988.769530	3.00000000E+0	
989.257810	5.00000000E+0	
989.746090	3.00000000E+0	
990.234380	2.00000000E+0	
990.722660	1.00000000E+0	
991.210940	1.00000000E+0	
991.699220	3.00000000E+0	
992.187500	1.00000000E+0	
992.675780	3.00000000E+0	
993.164060	0.00000000E+0	
993.652340	4.00000000E+0	
994.140630	4.00000000E+0	
994.628910	4.00000000E+0	
995.117190	4.00000000E+0	
995.605470	3.00000000E+0	
996.093750	2.00000000E+0	
996.58200	2.00000000E+0	
997.070310	5.00000000E+0	
997.558590	5.00000000E+0	
998.046880	1.00000000E+0	
998.535160	1.00000000E+0	
999.023440	3.00000000E+0	
999.511720	4.00000000E+0	
1000.00	2.00000000E+0	
1000.488300	1.00000000E+0	
1000.976600	2.00000000E+0	
1001.464800	3.00000000E+0	
1001.953100	5.00000000E+0	
1002.441400	1.00000000E+0	
1002.93000	2.00000000E+0	
1003.418000	0.00000000E+0	
1003.906300	6.00000000E+0	
1004.394500	2.00000000E+0	
1004.882800	4.00000000E+0	
1005.371100	3.00000000E+0	
1005.859400	6.00000000E+0	
1006.347700	5.00000000E+0	
1006.835900	6.00000000E+0	
1007.324200	4.00000000E+0	
1007.812500	6.00000000E+0	
1008.300800	3.00000000E+0	
1008.789100	4.00000000E+0	
1009.277300	2.00000000E+0	
1009.765600	5.00000000E+0	
1010.253900	6.00000000E+0	
1010.742200	5.00000000E+0	
1011.23000	3.00000000E+0	
1011.718800	2.00000000E+0	
1012.207000	4.00000000E+0	
1012.695300	3.00000000E+0	
1013.183600	5.00000000E+0	
1013.671900	3.00000000E+0	
1014.16000	4.00000000E+0	
1014.648400	1.00000000E+0	
1015.136700	3.00000000E+0	
1015.625000	5.00000000E+0	
1016.113300	4.00000000E+0	
1016.601600	2.00000000E+0	
1017.09000	3.00000000E+0	
1017.578100	3.00000000E+0	
1018.066400	4.00000000E+0	
1018.554700	4.00000000E+0	
1019.043000	2.00000000E+0	
1019.531300	3.00000000E+0	
1020.02000	4.00000000E+0	
1020.507800	2.00000000E+0	
1020.996100	5.00000000E+0	
1021.484400	4.00000000E+0	
1021.972700	0.00000000E+0	
1022.460900	2.00000000E+0	
1022.949200	4.00000000E+0	
1023.437500	2.00000000E+0	
1023.925800	7.00000000E+0	
1024.414100	1.00000000E+0	
1024.902300	5.00000000E+0	
1025.390600	1.00000000E+0	
1025.878900	6.00000000E+0	
1026.367200	2.00000000E+0	
1026.855500	1.00000000E+0	
1027.343800	1.00000000E+0	
1027.832000	4.00000000E+0	
1028.32000	1.00000000E+0	
1028.808600	5.00000000E+0	
1029.296900	5.00000000E+0	
1029.785200	4.00000000E+0	
1030.273400	2.00000000E+0	
1030.761700	1.00000000E+0	
1031.25000	4.00000000E+0	
1031.738300	4.00000000E+0	
1032.226600	6.00000000E+0	
1032.714800	4.00000000E+0	
1033.203100	2.00000000E+0	
1033.691400	4.00000000E+0	
1034.18000	3.00000000E+0	
1034.668000	2.00000000E+0	
1035.156300	4.00000000E+0	
1035.644500	4.00000000E+0	
1036.132800	4.00000000E+0	
1036.621100	2.00000000E+0	
1037.109400	5.00000000E+0	
1037.597700	0.00000000E+0	
1038.085900	1.00000000E+0	
1038.574200	1.00000000E+0	
1039.062500	4.00000000E+0	
1039.550800	3.00000000E+0	
1040.039100	3.00000000E+0	
1040.527300	4.00000000E+0	
1041.015600	2.00000000E+0	
1041.503900	5.00000000E+0	
1041.992200	1.00000000E+0	
1042.48000	3.00000000E+0	
1042.968800	1.00000000E+0	
1043.457000	2.00000000E+0	
1043.945300	2.00000000E+0	
1044.433600	5.00000000E+0	
1044.921900	1.00000000E+0	
1045.41000	4.00000000E+0	
1045.898400	3.00000000E+0	
1046.386700	0.00000000E+0	
1046.875000	3.00000000E+0	
1047.363300	1.00000000E+0	
1047.851600	4.00000000E+0	
1048.34000	3.00000000E+0	
1048.828100	4.00000000E+0	
1049.316400	3.00000000E+0	
1049.804700	4.00000000E+0	
1050.293000	4.00000000E+0	
1050.781300	6.00000000E+0	
1051.27000	5.00000000E+0	
1051.757800	2.00000000E+0	
1052.246100	3.00000000E+0	
1052.734400	2.00000000E+0	
1053.222700	4.00000000E+0	
1053.710900	2.00000000E+0	
1054.199200	4.00000000E+0	
1054.687500	3.00000000E+0	
1055.175800	1.00000000E+0	
1055.664100	2.00000000E+0	
1056.152300	6.00000000E+0	
1056.640600	0.00000000E+0	
1057.128900	3.00000000E+0	
1057.617200	3.00000000E+0	
1058.105500	2.00000000E+0	
1058.593800	2.00000000E+0	
1059.082000	5.00000000E+0	
1059.57000	2.00000000E+0	
1060.058600	5.00000000E+0	
1060.546900	6.00000000E+0	
1061.035200	3.00000000E+0	
1061.523400	1.00000000E+0	
1062.011700	1.00000000E+0	
1062.5000	2.00000000E+0	
1062.988300	3.00000000E+0	
1063.476600	5.00000000E+0	
1063.964800	2.00000000E+0	
1064.453100	1.00000000E+0	
1064.941400	3.00000000E+0	
1065.43000	2.00000000E+0	
1065.918000	2.00000000E+0	
1066.406300	4.00000000E+0	
1066.894500	4.00000000E+0	
1067.382800	2.00000000E+0	
1067.871100	3.00000000E+0	
1068.359400	5.00000000E+0	
1068.847700	9.00000000E+0	
1069.335900	3.00000000E+0	
1069.824200	3.00000000E+0	
1070.312500	4.00000000E+0	
1070.800800	2.00000000E+0	
1071.289100	0.00000000E+0	
1071.777300	2.00000000E+0	
1072.265600	2.00000000E+0	
1072.753900	4.00000000E+0	
1073.242200	3.00000000E+0	
1073.73000	5.00000000E+0	
1074.218800	4.00000000E+0	
1074.707000	3.00000000E+0	
1075.195300	1.00000000E+0	
1075.683600	0.00000000E+0	
1076.171900	3.00000000E+0	
1076.66000	3.00000000E+0	
1077.148400	2.00000000E+0	
1077.636700	0.00000000E+0	
1078.125000	2.00000000E+0	
1078.613300	3.00000000E+0	
1079.101600	4.00000000E+0	
1079.59000	1.00000000E+0	
1080.078100	1.00000000E+0	
1080.566400	4.00000000E+0	
1081.054700	2.00000000E+0	
1081.543000	2.00000000E+0	
1082.031300	1.00000000E+0	
1082.52000	6.00000000E+0	
1083.007800	2.00000000E+0	
1083.496100	4.00000000E+0	
1083.984400	2.00000000E+0	
1084.472700	1.00000000E+0	
1084.960900	2.00000000E+0	
1085.449200	3.00000000E+0	
1085.937500	3.00000000E+0	
1086.425800	3.00000000E+0	
1086.914100	1.00000000E+0	
1087.402300	3.00000000E+0	
1087.890600	2.00000000E+0	
1088.378900	2.00000000E+0	
1088.867200	1.00000000E+0	
1089.355500	1.00000000E+0	
1089.843800	3.00000000E+0	
1090.332000	3.00000000E+0	
1090.82000	5.00000000E+0	
1091.308600	2.00000000E+0	
1091.796900	3.00000000E+0	
1092.285200	3.00000000E+0	
1092.773400	2.00000000E+0	
1093.261700	1.00000000E+0	
1093.75000	1.00000000E+0	
1094.238300	3.00000000E+0	
1094.726600	4.00000000E+0	
1095.214800	2.00000000E+0	
1095.703100	2.00000000E+0	
1096.191400	4.00000000E+0	
1096.68000	5.00000000E+0	
1097.168000	1.00000000E+0	
1097.656300	1.00000000E+0	
1098.144500	4.00000000E+0	
1098.632800	1.00000000E+0	
1099.121100	3.00000000E+0	
1099.609400	3.00000000E+0	
1100.097700	5.00000000E+0	
1100.585900	4.00000000E+0	
1101.074200	3.00000000E+0	
1101.562500	5.00000000E+0	
1102.050800	4.00000000E+0	
1102.539100	2.00000000E+0	
1103.027300	4.00000000E+0	
1103.515600	2.00000000E+0	
1104.003900	3.00000000E+0	
1104.492200	1.00000000E+0	
1104.98000	2.00000000E+0	
1105.468800	2.00000000E+0	
1105.957000	0.00000000E+0	
1106.445300	4.00000000E+0	
1106.933600	0.00000000E+0	
1107.421900	6.00000000E+0	
1107.91000	2.00000000E+0	
1108.398400	5.00000000E+0	
1108.886700	2.00000000E+0	
1109.375000	2.00000000E+0	
1109.863300	4.00000000E+0	
1110.351600	3.00000000E+0	
1110.84000	2.00000000E+0	
1111.328100	4.00000000E+0	
1111.816400	2.00000000E+0	
1112.304700	0.00000000E+0	
1112.793000	2.00000000E+0	
1113.281300	3.00000000E+0	
1113.77000	1.00000000E+0	
1114.257800	6.00000000E+0	
1114.746100	5.00000000E+0	
1115.234400	2.00000000E+0	
1115.722700	3.00000000E+0	
1116.210900	4.00000000E+0	
1116.699200	4.00000000E+0	
1117.187500	3.00000000E+0	
1117.675800	0.00000000E+0	
1118.164100	3.00000000E+0	
1118.652300	4.00000000E+0	
1119.140600	4.00000000E+0	
1119.628900	0.00000000E+0	
1120.117200	7.00000000E+0	
1120.605500	3.00000000E+0	
1121.093800	4.00000000E+0	
1121.582000	6.00000000E+0	
1122.07000	1.00000000E+0	
1122.558600	4.00000000E+0	
1123.046900	2.00000000E+0	
1123.535200	2.00000000E+0	
1124.023400	1.00000000E+0	
1124.511700	0.00000000E+0	
1125.000	1.00000000E+0	
1125.488300	1.00000000E+0	
1125.976600	1.00000000E+0	
1126.464800	6.00000000E+0	
1126.953100	2.00000000E+0	
1127.441400	1.00000000E+0	
1127.93000	2.00000000E+0	
1128.418000	0.00000000E+0	
1128.906300	3.00000000E+0	
1129.394500	3.00000000E+0	
1129.882800	3.00000000E+0	
1130.371100	3.00000000E+0	
1130.859400	3.00000000E+0	
1131.347700	2.00000000E+0	
1131.835900	1.00000000E+0	
1132.324200	3.00000000E+0	
1132.812500	0.00000000E+0	
1133.300800	1.00000000E+0	
1133.789100	4.00000000E+0	
1134.277300	2.00000000E+0	
1134.765600	0.00000000E+0	
1135.253900	1.00000000E+0	
1135.742200	2.00000000E+0	
1136.23000	3.00000000E+0	
1136.718800	3.00000000E+0	
1137.207000	2.00000000E+0	
1137.695300	0.00000000E+0	
1138.183600	3.00000000E+0	
1138.671900	2.00000000E+0	
1139.16000	2.00000000E+0	
1139.648400	5.00000000E+0	
1140.136700	5.00000000E+0	
1140.625000	4.00000000E+0	
1141.113300	3.00000000E+0	
1141.601600	1.00000000E+0	
1142.09000	2.00000000E+0	
1142.578100	1.00000000E+0	
1143.066400	3.00000000E+0	
1143.554700	0.00000000E+0	
1144.043000	1.00000000E+0	
1144.531300	3.00000000E+0	
1145.02000	2.00000000E+0	
1145.507800	7.00000000E+0	
1145.996100	5.00000000E+0	
1146.484400	2.00000000E+0	
1146.972700	0.00000000E+0	
1147.460900	4.00000000E+0	
1147.949200	4.00000000E+0	
1148.437500	3.00000000E+0	
1148.925800	6.00000000E+0	
1149.414100	1.00000000E+0	
1149.902300	0.00000000E+0	
1150.390600	2.00000000E+0	
1150.878900	1.00000000E+0	
1151.367200	2.00000000E+0	
1151.855500	2.00000000E+0	
1152.343800	2.00000000E+0	
1152.832000	4.00000000E+0	
1153.32000	3.00000000E+0	
1153.808600	3.00000000E+0	
1154.296900	1.00000000E+0	
1154.785200	4.00000000E+0	
1155.273400	2.00000000E+0	
1155.761700	3.00000000E+0	
1156.25000	1.00000000E+0	
1156.738300	4.00000000E+0	
1157.226600	3.00000000E+0	
1157.714800	3.00000000E+0	
1158.203100	1.00000000E+0	
1158.691400	5.00000000E+0	
1159.18000	1.00000000E+0	
1159.668000	2.00000000E+0	
1160.156300	1.00000000E+0	
1160.644500	5.00000000E+0	
1161.132800	0.00000000E+0	
1161.621100	3.00000000E+0	
1162.109400	3.00000000E+0	
1162.597700	3.00000000E+0	
1163.085900	4.00000000E+0	
1163.574200	0.00000000E+0	
1164.062500	3.00000000E+0	
1164.550800	1.00000000E+0	
1165.039100	5.00000000E+0	
1165.527300	3.00000000E+0	
1166.015600	4.00000000E+0	
1166.503900	2.00000000E+0	
1166.992200	3.00000000E+0	
1167.48000	2.00000000E+0	
1167.968800	3.00000000E+0	
1168.457000	3.00000000E+0	
1168.945300	4.00000000E+0	
1169.433600	2.00000000E+0	
1169.921900	5.00000000E+0	
1170.41000	2.00000000E+0	
1170.898400	1.00000000E+0	
1171.386700	0.00000000E+0	
1171.875000	3.00000000E+0	
1172.363300	5.00000000E+0	
1172.851600	0.00000000E+0	
1173.34000	2.00000000E+0	
1173.828100	0.00000000E+0	
1174.316400	2.00000000E+0	
1174.804700	3.00000000E+0	
1175.293000	5.00000000E+0	
1175.781300	3.00000000E+0	
1176.27000	1.00000000E+0	
1176.757800	4.00000000E+0	
1177.246100	4.00000000E+0	
1177.734400	6.00000000E+0	
1178.222700	4.00000000E+0	
1178.710900	6.00000000E+0	
1179.199200	0.00000000E+0	
1179.687500	3.00000000E+0	
1180.175800	3.00000000E+0	
1180.664100	6.00000000E+0	
1181.152300	4.00000000E+0	
1181.640600	8.00000000E+0	
1182.128900	2.00000000E+0	
1182.617200	3.00000000E+0	
1183.105500	1.00000000E+0	
1183.593800	3.00000000E+0	
1184.082000	1.00000000E+0	
1184.57000	0.00000000E+0	
1185.058600	6.00000000E+0	
1185.546900	2.00000000E+0	
1186.035200	2.00000000E+0	
1186.523400	0.00000000E+0	
1187.011700	2.00000000E+0	
1187.5000	4.00000000E+0	
1187.988300	2.00000000E+0	
1188.476600	2.00000000E+0	
1188.964800	4.00000000E+0	
1189.453100	4.00000000E+0	
1189.941400	3.00000000E+0	
1190.43000	5.00000000E+0	
1190.918000	2.00000000E+0	
1191.406300	1.00000000E+0	
1191.894500	4.00000000E+0	
1192.382800	1.00000000E+0	
1192.871100	2.00000000E+0	
1193.359400	5.00000000E+0	
1193.847700	2.00000000E+0	
1194.335900	3.00000000E+0	
1194.824200	3.00000000E+0	
1195.312500	3.00000000E+0	
1195.800800	3.00000000E+0	
1196.289100	1.00000000E+0	
1196.777300	5.00000000E+0	
1197.265600	4.00000000E+0	
1197.753900	1.00000000E+0	
1198.242200	4.00000000E+0	
1198.73000	2.00000000E+0	
1199.218800	3.00000000E+0	
1199.707000	2.00000000E+0	
1200.195300	1.00000000E+0	
1200.683600	1.00000000E+0	
1201.171900	2.00000000E+0	
1201.66000	3.00000000E+0	
1202.148400	1.00000000E+0	
1202.636700	3.00000000E+0	
1203.125000	4.00000000E+0	
1203.613300	2.00000000E+0	
1204.101600	4.00000000E+0	
1204.59000	2.00000000E+0	
1205.078100	2.00000000E+0	
1205.566400	2.00000000E+0	
1206.054700	2.00000000E+0	
1206.543000	3.00000000E+0	
1207.031300	2.00000000E+0	
1207.52000	1.00000000E+0	
1208.007800	1.00000000E+0	
1208.496100	2.00000000E+0	
1208.984400	2.00000000E+0	
1209.472700	1.00000000E+0	
1209.960900	1.00000000E+0	
1210.449200	3.00000000E+0	
1210.937500	3.00000000E+0	
1211.425800	1.00000000E+0	
1211.914100	3.00000000E+0	
1212.402300	0.00000000E+0	
1212.890600	5.00000000E+0	
1213.378900	2.00000000E+0	
1213.867200	4.00000000E+0	
1214.355500	4.00000000E+0	
1214.843800	2.00000000E+0	
1215.332000	3.00000000E+0	
1215.82000	3.00000000E+0	
1216.308600	3.00000000E+0	
1216.796900	2.00000000E+0	
1217.285200	2.00000000E+0	
1217.773400	2.00000000E+0	
1218.261700	3.00000000E+0	
1218.75000	2.00000000E+0	
1219.238300	4.00000000E+0	
1219.726600	3.00000000E+0	
1220.214800	5.00000000E+0	
1220.703100	1.00000000E+0	
1221.191400	1.00000000E+0	
1221.68000	0.00000000E+0	
1222.168000	3.00000000E+0	
1222.656300	2.00000000E+0	
1223.144500	6.00000000E+0	
1223.632800	3.00000000E+0	
1224.121100	1.00000000E+0	
1224.609400	1.00000000E+0	
1225.097700	2.00000000E+0	
1225.585900	1.00000000E+0	
1226.074200	2.00000000E+0	
1226.562500	0.00000000E+0	
1227.050800	2.00000000E+0	
1227.539100	1.00000000E+0	
1228.027300	2.00000000E+0	
1228.515600	2.00000000E+0	
1229.003900	1.00000000E+0	
1229.492200	3.00000000E+0	
1229.98000	3.00000000E+0	
1230.468800	4.00000000E+0	
1230.957000	3.00000000E+0	
1231.445300	3.00000000E+0	
1231.933600	1.00000000E+0	
1232.421900	1.00000000E+0	
1232.91000	3.00000000E+0	
1233.398400	1.00000000E+0	
1233.886700	3.00000000E+0	
1234.375000	1.00000000E+0	
1234.863300	2.00000000E+0	
1235.351600	1.00000000E+0	
1235.84000	4.00000000E+0	
1236.328100	3.00000000E+0	
1236.816400	1.00000000E+0	
1237.304700	3.00000000E+0	
1237.793000	0.00000000E+0	
1238.281300	3.00000000E+0	
1238.77000	8.00000000E+0	
1239.257800	4.00000000E+0	
1239.746100	4.00000000E+0	
1240.234400	3.00000000E+0	
1240.722700	0.00000000E+0	
1241.210900	2.00000000E+0	
1241.699200	3.00000000E+0	
1242.187500	5.00000000E+0	
1242.675800	4.00000000E+0	
1243.164100	2.00000000E+0	
1243.652300	3.00000000E+0	
1244.140600	1.00000000E+0	
1244.628900	2.00000000E+0	
1245.117200	1.00000000E+0	
1245.605500	2.00000000E+0	
1246.093800	0.00000000E+0	
1246.582000	3.00000000E+0	
1247.07000	2.00000000E+0	
1247.558600	3.00000000E+0	
1248.046900	3.00000000E+0	
1248.535200	0.00000000E+0	
1249.023400	1.00000000E+0	
1249.511700	1.00000000E+0	
1250.00	1.00000000E+0	
1250.488300	2.00000000E+0	
1250.976600	3.00000000E+0	
1251.464800	5.00000000E+0	
1251.953100	7.00000000E+0	
1252.441400	4.00000000E+0	
1252.93000	1.00000000E+0	
1253.418000	2.00000000E+0	
1253.906300	2.00000000E+0	
1254.394500	2.00000000E+0	
1254.882800	6.00000000E+0	
1255.371100	4.00000000E+0	
1255.859400	1.00000000E+0	
1256.347700	2.00000000E+0	
1256.835900	2.00000000E+0	
1257.324200	8.00000000E+0	
1257.812500	2.00000000E+0	
1258.300800	4.00000000E+0	
1258.789100	0.00000000E+0	
1259.277300	4.00000000E+0	
1259.765600	5.00000000E+0	
1260.253900	1.00000000E+0	
1260.742200	1.00000000E+0	
1261.23000	5.00000000E+0	
1261.718800	0.00000000E+0	
1262.207000	2.00000000E+0	
1262.695300	3.00000000E+0	
1263.183600	2.00000000E+0	
1263.671900	3.00000000E+0	
1264.16000	4.00000000E+0	
1264.648400	1.00000000E+0	
1265.136700	1.00000000E+0	
1265.625000	3.00000000E+0	
1266.113300	5.00000000E+0	
1266.601600	2.00000000E+0	
1267.09000	2.00000000E+0	
1267.578100	4.00000000E+0	
1268.066400	3.00000000E+0	
1268.554700	0.00000000E+0	
1269.043000	2.00000000E+0	
1269.531300	1.00000000E+0	
1270.02000	2.00000000E+0	
1270.507800	1.00000000E+0	
1270.996100	2.00000000E+0	
1271.484400	4.00000000E+0	
1271.972700	5.00000000E+0	
1272.460900	1.00000000E+0	
1272.949200	0.00000000E+0	
1273.437500	3.00000000E+0	
1273.925800	2.00000000E+0	
1274.414100	2.00000000E+0	
1274.902300	3.00000000E+0	
1275.390600	3.00000000E+0	
1275.878900	5.00000000E+0	
1276.367200	2.00000000E+0	
1276.855500	3.00000000E+0	
1277.343800	5.00000000E+0	
1277.832000	1.00000000E+0	
1278.32000	1.00000000E+0	
1278.808600	3.00000000E+0	
1279.296900	1.00000000E+0	
1279.785200	2.00000000E+0	
1280.273400	3.00000000E+0	
1280.761700	1.00000000E+0	
1281.25000	4.00000000E+0	
1281.738300	3.00000000E+0	
1282.226600	1.00000000E+0	
1282.714800	3.00000000E+0	
1283.203100	1.00000000E+0	
1283.691400	2.00000000E+0	
1284.18000	3.00000000E+0	
1284.668000	1.00000000E+0	
1285.156300	1.00000000E+0	
1285.644500	2.00000000E+0	
1286.132800	3.00000000E+0	
1286.621100	1.00000000E+0	
1287.109400	3.00000000E+0	
1287.597700	1.00000000E+0	
1288.085900	1.00000000E+0	
1288.574200	4.00000000E+0	
1289.062500	3.00000000E+0	
1289.550800	2.00000000E+0	
1290.039100	3.00000000E+0	
1290.527300	1.00000000E+0	
1291.015600	1.00000000E+0	
1291.503900	0.00000000E+0	
1291.992200	2.00000000E+0	
1292.48000	2.00000000E+0	
1292.968800	2.00000000E+0	
1293.457000	2.00000000E+0	
1293.945300	5.00000000E+0	
1294.433600	4.00000000E+0	
1294.921900	2.00000000E+0	
1295.41000	3.00000000E+0	
1295.898400	4.00000000E+0	
1296.386700	2.00000000E+0	
1296.875000	0.00000000E+0	
1297.363300	3.00000000E+0	
1297.851600	1.00000000E+0	
1298.34000	2.00000000E+0	
1298.828100	1.00000000E+0	
1299.316400	3.00000000E+0	
1299.804700	3.00000000E+0	
1300.293000	2.00000000E+0	
1300.781300	4.00000000E+0	
1301.27000	5.00000000E+0	
1301.757800	1.00000000E+0	
1302.246100	1.00000000E+0	
1302.734400	5.00000000E+0	
1303.222700	1.00000000E+0	
1303.710900	3.00000000E+0	
1304.199200	1.00000000E+0	
1304.687500	0.00000000E+0	
1305.175800	2.00000000E+0	
1305.664100	2.00000000E+0	
1306.152300	4.00000000E+0	
1306.640600	1.00000000E+0	
1307.128900	2.00000000E+0	
1307.617200	1.00000000E+0	
1308.105500	1.00000000E+0	
1308.593800	4.00000000E+0	
1309.082000	1.00000000E+0	
1309.57000	6.00000000E+0	
1310.058600	1.00000000E+0	
1310.546900	0.00000000E+0	
1311.035200	1.00000000E+0	
1311.523400	4.00000000E+0	
1312.011700	2.00000000E+0	
1312.5000	4.00000000E+0	
1312.988300	4.00000000E+0	
1313.476600	2.00000000E+0	
1313.964800	1.00000000E+0	
1314.453100	1.00000000E+0	
1314.941400	2.00000000E+0	
1315.43000	2.00000000E+0	
1315.918000	3.00000000E+0	
1316.406300	2.00000000E+0	
1316.894500	4.00000000E+0	
1317.382800	4.00000000E+0	
1317.871100	2.00000000E+0	
1318.359400	1.00000000E+0	
1318.847700	1.00000000E+0	
1319.335900	2.00000000E+0	
1319.824200	2.00000000E+0	
1320.312500	1.00000000E+0	
1320.800800	5.00000000E+0	
1321.289100	3.00000000E+0	
1321.777300	3.00000000E+0	
1322.265600	2.00000000E+0	
1322.753900	4.00000000E+0	
1323.242200	2.00000000E+0	
1323.73000	3.00000000E+0	
1324.218800	2.00000000E+0	
1324.707000	2.00000000E+0	
1325.195300	3.00000000E+0	
1325.683600	2.00000000E+0	
1326.171900	4.00000000E+0	
1326.66000	1.00000000E+0	
1327.148400	3.00000000E+0	
1327.636700	1.00000000E+0	
1328.125000	0.00000000E+0	
1328.613300	0.00000000E+0	
1329.101600	1.00000000E+0	
1329.59000	8.00000000E+0	
1330.078100	2.00000000E+0	
1330.566400	2.00000000E+0	
1331.054700	5.00000000E+0	
1331.543000	3.00000000E+0	
1332.031300	2.00000000E+0	
1332.52000	2.00000000E+0	
1333.007800	4.00000000E+0	
1333.496100	1.00000000E+0	
1333.984400	1.00000000E+0	
1334.472700	1.00000000E+0	
1334.960900	3.00000000E+0	
1335.449200	4.00000000E+0	
1335.937500	1.00000000E+0	
1336.425800	0.00000000E+0	
1336.914100	4.00000000E+0	
1337.402300	6.00000000E+0	
1337.890600	3.00000000E+0	
1338.378900	2.00000000E+0	
1338.867200	2.00000000E+0	
1339.355500	1.00000000E+0	
1339.843800	4.00000000E+0	
1340.332000	1.00000000E+0	
1340.82000	3.00000000E+0	
1341.308600	2.00000000E+0	
1341.796900	2.00000000E+0	
1342.285200	3.00000000E+0	
1342.773400	0.00000000E+0	
1343.261700	0.00000000E+0	
1343.75000	6.00000000E+0	
1344.238300	5.00000000E+0	
1344.726600	4.00000000E+0	
1345.214800	2.00000000E+0	
1345.703100	3.00000000E+0	
1346.191400	1.00000000E+0	
1346.68000	0.00000000E+0	
1347.168000	3.00000000E+0	
1347.656300	0.00000000E+0	
1348.144500	2.00000000E+0	
1348.632800	1.00000000E+0	
1349.121100	5.00000000E+0	
1349.609400	3.00000000E+0	
1350.097700	3.00000000E+0	
1350.585900	1.00000000E+0	
1351.074200	2.00000000E+0	
1351.562500	3.00000000E+0	
1352.050800	3.00000000E+0	
1352.539100	4.00000000E+0	
1353.027300	2.00000000E+0	
1353.515600	0.00000000E+0	
1354.003900	2.00000000E+0	
1354.492200	4.00000000E+0	
1354.98000	1.00000000E+0	
1355.468800	3.00000000E+0	
1355.957000	4.00000000E+0	
1356.445300	1.00000000E+0	
1356.933600	1.00000000E+0	
1357.421900	2.00000000E+0	
1357.91000	5.00000000E+0	
1358.398400	2.00000000E+0	
1358.886700	3.00000000E+0	
1359.375000	2.00000000E+0	
1359.863300	1.00000000E+0	
1360.351600	1.00000000E+0	
1360.84000	2.00000000E+0	
1361.328100	2.00000000E+0	
1361.816400	4.00000000E+0	
1362.304700	1.00000000E+0	
1362.793000	1.00000000E+0	
1363.281300	2.00000000E+0	
1363.77000	2.00000000E+0	
1364.257800	3.00000000E+0	
1364.746100	1.00000000E+0	
1365.234400	2.00000000E+0	
1365.722700	1.00000000E+0	
1366.210900	3.00000000E+0	
1366.699200	5.00000000E+0	
1367.187500	0.00000000E+0	
1367.675800	0.00000000E+0	
1368.164100	4.00000000E+0	
1368.652300	2.00000000E+0	
1369.140600	2.00000000E+0	
1369.628900	4.00000000E+0	
1370.117200	1.00000000E+0	
1370.605500	1.00000000E+0	
1371.093800	0.00000000E+0	
1371.582000	2.00000000E+0	
1372.07000	3.00000000E+0	
1372.558600	2.00000000E+0	
1373.046900	3.00000000E+0	
1373.535200	1.00000000E+0	
1374.023400	3.00000000E+0	
1374.511700	3.00000000E+0	
1375.000	2.00000000E+0	
1375.488300	1.00000000E+0	
1375.976600	0.00000000E+0	
1376.464800	3.00000000E+0	
1376.953100	1.00000000E+0	
1377.441400	2.00000000E+0	
1377.93000	1.00000000E+0	
1378.418000	2.00000000E+0	
1378.906300	2.00000000E+0	
1379.394500	1.00000000E+0	
1379.882800	4.00000000E+0	
1380.371100	4.00000000E+0	
1380.859400	2.00000000E+0	
1381.347700	4.00000000E+0	
1381.835900	1.00000000E+0	
1382.324200	1.00000000E+0	
1382.812500	1.00000000E+0	
1383.300800	2.00000000E+0	
1383.789100	2.00000000E+0	
1384.277300	3.00000000E+0	
1384.765600	0.00000000E+0	
1385.253900	1.00000000E+0	
1385.742200	4.00000000E+0	
1386.23000	1.00000000E+0	
1386.718800	0.00000000E+0	
1387.207000	1.00000000E+0	
1387.695300	2.00000000E+0	
1388.183600	0.00000000E+0	
1388.671900	3.00000000E+0	
1389.16000	2.00000000E+0	
1389.648400	2.00000000E+0	
1390.136700	4.00000000E+0	
1390.625000	3.00000000E+0	
1391.113300	3.00000000E+0	
1391.601600	3.00000000E+0	
1392.09000	3.00000000E+0	
1392.578100	2.00000000E+0	
1393.066400	5.00000000E+0	
1393.554700	3.00000000E+0	
1394.043000	2.00000000E+0	
1394.531300	1.00000000E+0	
1395.02000	0.00000000E+0	
1395.507800	2.00000000E+0	
1395.996100	1.00000000E+0	
1396.484400	1.00000000E+0	
1396.972700	5.00000000E+0	
1397.460900	1.00000000E+0	
1397.949200	4.00000000E+0	
1398.437500	2.00000000E+0	
1398.925800	4.00000000E+0	
1399.414100	0.00000000E+0	
1399.902300	1.00000000E+0	
1400.390600	5.00000000E+0	
1400.878900	1.00000000E+0	
1401.367200	2.00000000E+0	
1401.855500	2.00000000E+0	
1402.343800	2.00000000E+0	
1402.832000	2.00000000E+0	
1403.32000	1.00000000E+0	
1403.808600	2.00000000E+0	
1404.296900	3.00000000E+0	
1404.785200	1.00000000E+0	
1405.273400	0.00000000E+0	
1405.761700	0.00000000E+0	
1406.25000	1.00000000E+0	
1406.738300	1.00000000E+0	
1407.226600	2.00000000E+0	
1407.714800	0.00000000E+0	
1408.203100	3.00000000E+0	
1408.691400	2.00000000E+0	
1409.18000	1.00000000E+0	
1409.668000	4.00000000E+0	
1410.156300	1.00000000E+0	
1410.644500	3.00000000E+0	
1411.132800	2.00000000E+0	
1411.621100	3.00000000E+0	
1412.109400	2.00000000E+0	
1412.597700	2.00000000E+0	
1413.085900	1.00000000E+0	
1413.574200	1.00000000E+0	
1414.062500	3.00000000E+0	
1414.550800	1.00000000E+0	
1415.039100	0.00000000E+0	
1415.527300	2.00000000E+0	
1416.015600	4.00000000E+0	
1416.503900	2.00000000E+0	
1416.992200	1.00000000E+0	
1417.48000	2.00000000E+0	
1417.968800	0.00000000E+0	
1418.457000	2.00000000E+0	
1418.945300	2.00000000E+0	
1419.433600	1.00000000E+0	
1419.921900	3.00000000E+0	
1420.41000	1.00000000E+0	
1420.898400	1.00000000E+0	
1421.386700	2.00000000E+0	
1421.875000	2.00000000E+0	
1422.363300	4.00000000E+0	
1422.851600	4.00000000E+0	
1423.34000	1.00000000E+0	
1423.828100	1.00000000E+0	
1424.316400	1.00000000E+0	
1424.804700	4.00000000E+0	
1425.293000	1.00000000E+0	
1425.781300	3.00000000E+0	
1426.27000	1.00000000E+0	
1426.757800	2.00000000E+0	
1427.246100	3.00000000E+0	
1427.734400	1.00000000E+0	
1428.222700	3.00000000E+0	
1428.710900	1.00000000E+0	
1429.199200	1.00000000E+0	
1429.687500	3.00000000E+0	
1430.175800	0.00000000E+0	
1430.664100	2.00000000E+0	
1431.152300	1.00000000E+0	
1431.640600	3.00000000E+0	
1432.128900	3.00000000E+0	
1432.617200	2.00000000E+0	
1433.105500	1.00000000E+0	
1433.593800	1.00000000E+0	
1434.082000	2.00000000E+0	
1434.57000	0.00000000E+0	
1435.058600	3.00000000E+0	
1435.546900	3.00000000E+0	
1436.035200	2.00000000E+0	
1436.523400	1.00000000E+0	
1437.011700	0.00000000E+0	
1437.5000	4.00000000E+0	
1437.988300	1.00000000E+0	
1438.476600	4.00000000E+0	
1438.964800	5.00000000E+0	
1439.453100	1.00000000E+0	
1439.941400	1.00000000E+0	
1440.43000	1.00000000E+0	
1440.918000	3.00000000E+0	
1441.406300	1.00000000E+0	
1441.894500	0.00000000E+0	
1442.382800	2.00000000E+0	
1442.871100	0.00000000E+0	
1443.359400	5.00000000E+0	
1443.847700	1.00000000E+0	
1444.335900	0.00000000E+0	
1444.824200	0.00000000E+0	
1445.312500	0.00000000E+0	
1445.800800	6.00000000E+0	
1446.289100	0.00000000E+0	
1446.777300	2.00000000E+0	
1447.265600	2.00000000E+0	
1447.753900	5.00000000E+0	
1448.242200	2.00000000E+0	
1448.73000	2.00000000E+0	
1449.218800	1.00000000E+0	
1449.707000	1.00000000E+0	
1450.195300	3.00000000E+0	
1450.683600	1.00000000E+0	
1451.171900	1.00000000E+0	
1451.66000	1.00000000E+0	
1452.148400	2.00000000E+0	
1452.636700	0.00000000E+0	
1453.125000	3.00000000E+0	
1453.613300	1.00000000E+0	
1454.101600	1.00000000E+0	
1454.59000	3.00000000E+0	
1455.078100	2.00000000E+0	
1455.566400	1.00000000E+0	
1456.054700	2.00000000E+0	
1456.543000	4.00000000E+0	
1457.031300	2.00000000E+0	
1457.52000	2.00000000E+0	
1458.007800	2.00000000E+0	
1458.496100	4.00000000E+0	
1458.984400	3.00000000E+0	
1459.472700	3.00000000E+0	
1459.960900	3.00000000E+0	
1460.449200	2.00000000E+0	
1460.937500	4.00000000E+0	
1461.425800	1.00000000E+0	
1461.914100	2.00000000E+0	
1462.402300	1.00000000E+0	
1462.890600	3.00000000E+0	
1463.378900	4.00000000E+0	
1463.867200	1.00000000E+0	
1464.355500	0.00000000E+0	
1464.843800	2.00000000E+0	
1465.332000	4.00000000E+0	
1465.82000	2.00000000E+0	
1466.308600	4.00000000E+0	
1466.796900	2.00000000E+0	
1467.285200	2.00000000E+0	
1467.773400	1.00000000E+0	
1468.261700	1.00000000E+0	
1468.75000	0.00000000E+0	
1469.238300	2.00000000E+0	
1469.726600	2.00000000E+0	
1470.214800	0.00000000E+0	
1470.703100	1.00000000E+0	
1471.191400	0.00000000E+0	
1471.68000	2.00000000E+0	
1472.168000	2.00000000E+0	
1472.656300	2.00000000E+0	
1473.144500	1.00000000E+0	
1473.632800	2.00000000E+0	
1474.121100	1.00000000E+0	
1474.609400	1.00000000E+0	
1475.097700	2.00000000E+0	
1475.585900	1.00000000E+0	
1476.074200	1.00000000E+0	
1476.562500	2.00000000E+0	
1477.050800	4.00000000E+0	
1477.539100	2.00000000E+0	
1478.027300	2.00000000E+0	
1478.515600	4.00000000E+0	
1479.003900	1.00000000E+0	
1479.492200	1.00000000E+0	
1479.98000	2.00000000E+0	
1480.468800	2.00000000E+0	
1480.957000	2.00000000E+0	
1481.445300	2.00000000E+0	
1481.933600	2.00000000E+0	
1482.421900	1.00000000E+0	
1482.91000	2.00000000E+0	
1483.398400	3.00000000E+0	
1483.886700	2.00000000E+0	
1484.375000	0.00000000E+0	
1484.863300	3.00000000E+0	
1485.351600	1.00000000E+0	
1485.84000	3.00000000E+0	
1486.328100	2.00000000E+0	
1486.816400	2.00000000E+0	
1487.304700	3.00000000E+0	
1487.793000	2.00000000E+0	
1488.281300	4.00000000E+0	
1488.77000	3.00000000E+0	
1489.257800	3.00000000E+0	
1489.746100	3.00000000E+0	
1490.234400	0.00000000E+0	
1490.722700	2.00000000E+0	
1491.210900	2.00000000E+0	
1491.699200	1.00000000E+0	
1492.187500	3.00000000E+0	
1492.675800	2.00000000E+0	
1493.164100	0.00000000E+0	
1493.652300	1.00000000E+0	
1494.140600	3.00000000E+0	
1494.628900	0.00000000E+0	
1495.117200	0.00000000E+0	
1495.605500	0.00000000E+0	
1496.093800	3.00000000E+0	
1496.582000	1.00000000E+0	
1497.07000	3.00000000E+0	
1497.558600	0.00000000E+0	
1498.046900	1.00000000E+0	
1498.535200	2.00000000E+0	
1499.023400	1.00000000E+0	
1499.511700	1.00000000E+0	
1500.00	3.00000000E+0	
1500.488300	1.00000000E+0	
1500.976600	1.00000000E+0	
1501.464800	0.00000000E+0	
1501.953100	1.00000000E+0	
1502.441400	2.00000000E+0	
1502.93000	2.00000000E+0	
1503.418000	0.00000000E+0	
1503.906300	3.00000000E+0	
1504.394500	1.00000000E+0	
1504.882800	1.00000000E+0	
1505.371100	0.00000000E+0	
1505.859400	2.00000000E+0	
1506.347700	1.00000000E+0	
1506.835900	3.00000000E+0	
1507.324200	0.00000000E+0	
1507.812500	2.00000000E+0	
1508.300800	2.00000000E+0	
1508.789100	2.00000000E+0	
1509.277300	3.00000000E+0	
1509.765600	1.00000000E+0	
1510.253900	3.00000000E+0	
1510.742200	1.00000000E+0	
1511.23000	3.00000000E+0	
1511.718800	1.00000000E+0	
1512.207000	2.00000000E+0	
1512.695300	3.00000000E+0	
1513.183600	5.00000000E+0	
1513.671900	1.00000000E+0	
1514.16000	1.00000000E+0	
1514.648400	2.00000000E+0	
1515.136700	4.00000000E+0	
1515.625000	3.00000000E+0	
1516.113300	1.00000000E+0	
1516.601600	1.00000000E+0	
1517.09000	2.00000000E+0	
1517.578100	0.00000000E+0	
1518.066400	3.00000000E+0	
1518.554700	2.00000000E+0	
1519.043000	3.00000000E+0	
1519.531300	2.00000000E+0	
1520.02000	5.00000000E+0	
1520.507800	1.00000000E+0	
1520.996100	1.00000000E+0	
1521.484400	4.00000000E+0	
1521.972700	1.00000000E+0	
1522.460900	2.00000000E+0	
1522.949200	5.00000000E+0	
1523.437500	2.00000000E+0	
1523.925800	2.00000000E+0	
1524.414100	3.00000000E+0	
1524.902300	2.00000000E+0	
1525.390600	2.00000000E+0	
1525.878900	2.00000000E+0	
1526.367200	0.00000000E+0	
1526.855500	2.00000000E+0	
1527.343800	1.00000000E+0	
1527.832000	2.00000000E+0	
1528.32000	0.00000000E+0	
1528.808600	3.00000000E+0	
1529.296900	1.00000000E+0	
1529.785200	1.00000000E+0	
1530.273400	3.00000000E+0	
1530.761700	4.00000000E+0	
1531.25000	1.00000000E+0	
1531.738300	4.00000000E+0	
1532.226600	0.00000000E+0	
1532.714800	6.00000000E+0	
1533.203100	1.00000000E+0	
1533.691400	3.00000000E+0	
1534.18000	2.00000000E+0	
1534.668000	2.00000000E+0	
1535.156300	0.00000000E+0	
1535.644500	3.00000000E+0	
1536.132800	1.00000000E+0	
1536.621100	6.00000000E+0	
1537.109400	0.00000000E+0	
1537.597700	1.00000000E+0	
1538.085900	2.00000000E+0	
1538.574200	2.00000000E+0	
1539.062500	1.00000000E+0	
1539.550800	1.00000000E+0	
1540.039100	3.00000000E+0	
1540.527300	1.00000000E+0	
1541.015600	1.00000000E+0	
1541.503900	3.00000000E+0	
1541.992200	2.00000000E+0	
1542.48000	0.00000000E+0	
1542.968800	3.00000000E+0	
1543.457000	4.00000000E+0	
1543.945300	0.00000000E+0	
1544.433600	0.00000000E+0	
1544.921900	0.00000000E+0	
1545.41000	1.00000000E+0	
1545.898400	1.00000000E+0	
1546.386700	2.00000000E+0	
1546.875000	1.00000000E+0	
1547.363300	2.00000000E+0	
1547.851600	0.00000000E+0	
1548.34000	1.00000000E+0	
1548.828100	0.00000000E+0	
1549.316400	2.00000000E+0	
1549.804700	1.00000000E+0	
1550.293000	3.00000000E+0	
1550.781300	1.00000000E+0	
1551.27000	0.00000000E+0	
1551.757800	3.00000000E+0	
1552.246100	4.00000000E+0	
1552.734400	2.00000000E+0	
1553.222700	1.00000000E+0	
1553.710900	4.00000000E+0	
1554.199200	0.00000000E+0	
1554.687500	0.00000000E+0	
1555.175800	0.00000000E+0	
1555.664100	5.00000000E+0	
1556.152300	4.00000000E+0	
1556.640600	1.00000000E+0	
1557.128900	4.00000000E+0	
1557.617200	0.00000000E+0	
1558.105500	2.00000000E+0	
1558.593800	0.00000000E+0	
1559.082000	0.00000000E+0	
1559.57000	1.00000000E+0	
1560.058600	1.00000000E+0	
1560.546900	4.00000000E+0	
1561.035200	2.00000000E+0	
1561.523400	1.00000000E+0	
1562.011700	0.00000000E+0	
1562.5000	1.00000000E+0	
1562.988300	1.00000000E+0	
1563.476600	2.00000000E+0	
1563.964800	3.00000000E+0	
1564.453100	5.00000000E+0	
1564.941400	1.00000000E+0	
1565.43000	1.00000000E+0	
1565.918000	1.00000000E+0	
1566.406300	0.00000000E+0	
1566.894500	2.00000000E+0	
1567.382800	4.00000000E+0	
1567.871100	3.00000000E+0	
1568.359400	2.00000000E+0	
1568.847700	1.00000000E+0	
1569.335900	2.00000000E+0	
1569.824200	2.00000000E+0	
1570.312500	1.00000000E+0	
1570.800800	2.00000000E+0	
1571.289100	0.00000000E+0	
1571.777300	2.00000000E+0	
1572.265600	1.00000000E+0	
1572.753900	4.00000000E+0	
1573.242200	2.00000000E+0	
1573.73000	2.00000000E+0	
1574.218800	2.00000000E+0	
1574.707000	2.00000000E+0	
1575.195300	1.00000000E+0	
1575.683600	3.00000000E+0	
1576.171900	3.00000000E+0	
1576.66000	3.00000000E+0	
1577.148400	2.00000000E+0	
1577.636700	2.00000000E+0	
1578.125000	1.00000000E+0	
1578.613300	0.00000000E+0	
1579.101600	4.00000000E+0	
1579.59000	2.00000000E+0	
1580.078100	1.00000000E+0	
1580.566400	0.00000000E+0	
1581.054700	3.00000000E+0	
1581.543000	5.00000000E+0	
1582.031300	2.00000000E+0	
1582.52000	2.00000000E+0	
1583.007800	2.00000000E+0	
1583.496100	5.00000000E+0	
1583.984400	2.00000000E+0	
1584.472700	1.00000000E+0	
1584.960900	1.00000000E+0	
1585.449200	1.00000000E+0	
1585.937500	4.00000000E+0	
1586.425800	1.00000000E+0	
1586.914100	4.00000000E+0	
1587.402300	5.00000000E+0	
1587.890600	4.00000000E+0	
1588.378900	1.00000000E+0	
1588.867200	1.00000000E+0	
1589.355500	1.00000000E+0	
1589.843800	2.00000000E+0	
1590.332000	4.00000000E+0	
1590.82000	1.00000000E+0	
1591.308600	2.00000000E+0	
1591.796900	1.00000000E+0	
1592.285200	0.00000000E+0	
1592.773400	1.00000000E+0	
1593.261700	2.00000000E+0	
1593.75000	2.00000000E+0	
1594.238300	1.00000000E+0	
1594.726600	4.00000000E+0	
1595.214800	1.00000000E+0	
1595.703100	3.00000000E+0	
1596.191400	1.00000000E+0	
1596.68000	1.00000000E+0	
1597.168000	1.00000000E+0	
1597.656300	1.00000000E+0	
1598.144500	2.00000000E+0	
1598.632800	0.00000000E+0	
1599.121100	1.00000000E+0	
1599.609400	0.00000000E+0	
1600.097700	1.00000000E+0	
1600.585900	3.00000000E+0	
1601.074200	1.00000000E+0	
1601.562500	1.00000000E+0	
1602.050800	2.00000000E+0	
1602.539100	3.00000000E+0	
1603.027300	4.00000000E+0	
1603.515600	3.00000000E+0	
1604.003900	2.00000000E+0	
1604.492200	4.00000000E+0	
1604.98000	3.00000000E+0	
1605.468800	0.00000000E+0	
1605.957000	0.00000000E+0	
1606.445300	3.00000000E+0	
1606.933600	1.00000000E+0	
1607.421900	0.00000000E+0	
1607.91000	4.00000000E+0	
1608.398400	0.00000000E+0	
1608.886700	2.00000000E+0	
1609.375000	2.00000000E+0	
1609.863300	2.00000000E+0	
1610.351600	2.00000000E+0	
1610.84000	0.00000000E+0	
1611.328100	0.00000000E+0	
1611.816400	4.00000000E+0	
1612.304700	0.00000000E+0	
1612.793000	0.00000000E+0	
1613.281300	0.00000000E+0	
1613.77000	1.00000000E+0	
1614.257800	0.00000000E+0	
1614.746100	3.00000000E+0	
1615.234400	1.00000000E+0	
1615.722700	2.00000000E+0	
1616.210900	1.00000000E+0	
1616.699200	3.00000000E+0	
1617.187500	1.00000000E+0	
1617.675800	1.00000000E+0	
1618.164100	0.00000000E+0	
1618.652300	1.00000000E+0	
1619.140600	2.00000000E+0	
1619.628900	3.00000000E+0	
1620.117200	5.00000000E+0	
1620.605500	0.00000000E+0	
1621.093800	3.00000000E+0	
1621.582000	1.00000000E+0	
1622.07000	2.00000000E+0	
1622.558600	0.00000000E+0	
1623.046900	1.00000000E+0	
1623.535200	3.00000000E+0	
1624.023400	0.00000000E+0	
1624.511700	2.00000000E+0	
1625.000	1.00000000E+0	
1625.488300	3.00000000E+0	
1625.976600	1.00000000E+0	
1626.464800	0.00000000E+0	
1626.953100	2.00000000E+0	
1627.441400	1.00000000E+0	
1627.93000	1.00000000E+0	
1628.418000	3.00000000E+0	
1628.906300	0.00000000E+0	
1629.394500	2.00000000E+0	
1629.882800	4.00000000E+0	
1630.371100	1.00000000E+0	
1630.859400	3.00000000E+0	
1631.347700	2.00000000E+0	
1631.835900	1.00000000E+0	
1632.324200	3.00000000E+0	
1632.812500	1.00000000E+0	
1633.300800	0.00000000E+0	
1633.789100	2.00000000E+0	
1634.277300	0.00000000E+0	
1634.765600	1.00000000E+0	
1635.253900	3.00000000E+0	
1635.742200	1.00000000E+0	
1636.23000	1.00000000E+0	
1636.718800	3.00000000E+0	
1637.207000	2.00000000E+0	
1637.695300	1.00000000E+0	
1638.183600	5.00000000E+0	
1638.671900	2.00000000E+0	
1639.16000	0.00000000E+0	
1639.648400	0.00000000E+0	
1640.136700	2.00000000E+0	
1640.625000	1.00000000E+0	
1641.113300	0.00000000E+0	
1641.601600	2.00000000E+0	
1642.09000	3.00000000E+0	
1642.578100	3.00000000E+0	
1643.066400	0.00000000E+0	
1643.554700	0.00000000E+0	
1644.043000	4.00000000E+0	
1644.531300	3.00000000E+0	
1645.02000	3.00000000E+0	
1645.507800	1.00000000E+0	
1645.996100	1.00000000E+0	
1646.484400	2.00000000E+0	
1646.972700	2.00000000E+0	
1647.460900	3.00000000E+0	
1647.949200	1.00000000E+0	
1648.437500	0.00000000E+0	
1648.925800	3.00000000E+0	
1649.414100	1.00000000E+0	
1649.902300	4.00000000E+0	
1650.390600	1.00000000E+0	
1650.878900	1.00000000E+0	
1651.367200	0.00000000E+0	
1651.855500	3.00000000E+0	
1652.343800	1.00000000E+0	
1652.832000	0.00000000E+0	
1653.32000	2.00000000E+0	
1653.808600	1.00000000E+0	
1654.296900	1.00000000E+0	
1654.785200	1.00000000E+0	
1655.273400	3.00000000E+0	
1655.761700	1.00000000E+0	
1656.25000	1.00000000E+0	
1656.738300	2.00000000E+0	
1657.226600	1.00000000E+0	
1657.714800	1.00000000E+0	
1658.203100	4.00000000E+0	
1658.691400	3.00000000E+0	
1659.18000	1.00000000E+0	
1659.668000	1.00000000E+0	
1660.156300	4.00000000E+0	
1660.644500	3.00000000E+0	
1661.132800	2.00000000E+0	
1661.621100	1.00000000E+0	
1662.109400	1.00000000E+0	
1662.597700	1.00000000E+0	
1663.085900	1.00000000E+0	
1663.574200	1.00000000E+0	
1664.062500	1.00000000E+0	
1664.550800	2.00000000E+0	
1665.039100	3.00000000E+0	
1665.527300	4.00000000E+0	
1666.015600	3.00000000E+0	
1666.503900	2.00000000E+0	
1666.992200	2.00000000E+0	
1667.48000	0.00000000E+0	
1667.968800	2.00000000E+0	
1668.457000	1.00000000E+0	
1668.945300	1.00000000E+0	
1669.433600	4.00000000E+0	
1669.921900	2.00000000E+0	
1670.41000	0.00000000E+0	
1670.898400	2.00000000E+0	
1671.386700	1.00000000E+0	
1671.875000	1.00000000E+0	
1672.363300	0.00000000E+0	
1672.851600	0.00000000E+0	
1673.34000	3.00000000E+0	
1673.828100	1.00000000E+0	
1674.316400	2.00000000E+0	
1674.804700	3.00000000E+0	
1675.293000	3.00000000E+0	
1675.781300	2.00000000E+0	
1676.27000	4.00000000E+0	
1676.757800	2.00000000E+0	
1677.246100	4.00000000E+0	
1677.734400	2.00000000E+0	
1678.222700	2.00000000E+0	
1678.710900	2.00000000E+0	
1679.199200	3.00000000E+0	
1679.687500	3.00000000E+0	
1680.175800	0.00000000E+0	
1680.664100	0.00000000E+0	
1681.152300	2.00000000E+0	
1681.640600	0.00000000E+0	
1682.128900	1.00000000E+0	
1682.617200	2.00000000E+0	
1683.105500	1.00000000E+0	
1683.593800	1.00000000E+0	
1684.082000	1.00000000E+0	
1684.57000	1.00000000E+0	
1685.058600	1.00000000E+0	
1685.546900	2.00000000E+0	
1686.035200	2.00000000E+0	
1686.523400	2.00000000E+0	
1687.011700	1.00000000E+0	
1687.5000	0.00000000E+0	
1687.988300	3.00000000E+0	
1688.476600	1.00000000E+0	
1688.964800	2.00000000E+0	
1689.453100	1.00000000E+0	
1689.941400	1.00000000E+0	
1690.43000	1.00000000E+0	
1690.918000	1.00000000E+0	
1691.406300	0.00000000E+0	
1691.894500	1.00000000E+0	
1692.382800	3.00000000E+0	
1692.871100	3.00000000E+0	
1693.359400	3.00000000E+0	
1693.847700	2.00000000E+0	
1694.335900	3.00000000E+0	
1694.824200	4.00000000E+0	
1695.312500	1.00000000E+0	
1695.800800	3.00000000E+0	
1696.289100	1.00000000E+0	
1696.777300	0.00000000E+0	
1697.265600	4.00000000E+0	
1697.753900	2.00000000E+0	
1698.242200	1.00000000E+0	
1698.73000	4.00000000E+0	
1699.218800	0.00000000E+0	
1699.707000	0.00000000E+0	
1700.195300	1.00000000E+0	
1700.683600	1.00000000E+0	
1701.171900	0.00000000E+0	
1701.66000	0.00000000E+0	
1702.148400	2.00000000E+0	
1702.636700	1.00000000E+0	
1703.125000	1.00000000E+0	
1703.613300	2.00000000E+0	
1704.101600	4.00000000E+0	
1704.59000	2.00000000E+0	
1705.078100	2.00000000E+0	
1705.566400	1.00000000E+0	
1706.054700	0.00000000E+0	
1706.543000	2.00000000E+0	
1707.031300	3.00000000E+0	
1707.52000	1.00000000E+0	
1708.007800	2.00000000E+0	
1708.496100	2.00000000E+0	
1708.984400	2.00000000E+0	
1709.472700	1.00000000E+0	
1709.960900	0.00000000E+0	
1710.449200	2.00000000E+0	
1710.937500	2.00000000E+0	
1711.425800	1.00000000E+0	
1711.914100	2.00000000E+0	
1712.402300	2.00000000E+0	
1712.890600	1.00000000E+0	
1713.378900	1.00000000E+0	
1713.867200	1.00000000E+0	
1714.355500	2.00000000E+0	
1714.843800	3.00000000E+0	
1715.332000	1.00000000E+0	
1715.82000	4.00000000E+0	
1716.308600	0.00000000E+0	
1716.796900	1.00000000E+0	
1717.285200	1.00000000E+0	
1717.773400	1.00000000E+0	
1718.261700	0.00000000E+0	
1718.75000	1.00000000E+0	
1719.238300	3.00000000E+0	
1719.726600	1.00000000E+0	
1720.214800	4.00000000E+0	
1720.703100	1.00000000E+0	
1721.191400	3.00000000E+0	
1721.68000	2.00000000E+0	
1722.168000	1.00000000E+0	
1722.656300	1.00000000E+0	
1723.144500	4.00000000E+0	
1723.632800	4.00000000E+0	
1724.121100	2.00000000E+0	
1724.609400	1.00000000E+0	
1725.097700	1.00000000E+0	
1725.585900	0.00000000E+0	
1726.074200	3.00000000E+0	
1726.562500	2.00000000E+0	
1727.050800	1.00000000E+0	
1727.539100	0.00000000E+0	
1728.027300	0.00000000E+0	
1728.515600	0.00000000E+0	
1729.003900	1.00000000E+0	
1729.492200	3.00000000E+0	
1729.98000	0.00000000E+0	
1730.468800	1.00000000E+0	
1730.957000	1.00000000E+0	
1731.445300	1.00000000E+0	
1731.933600	1.00000000E+0	
1732.421900	0.00000000E+0	
1732.91000	1.00000000E+0	
1733.398400	1.00000000E+0	
1733.886700	2.00000000E+0	
1734.375000	0.00000000E+0	
1734.863300	2.00000000E+0	
1735.351600	0.00000000E+0	
1735.84000	1.00000000E+0	
1736.328100	2.00000000E+0	
1736.816400	1.00000000E+0	
1737.304700	4.00000000E+0	
1737.793000	1.00000000E+0	
1738.281300	0.00000000E+0	
1738.77000	2.00000000E+0	
1739.257800	1.00000000E+0	
1739.746100	3.00000000E+0	
1740.234400	2.00000000E+0	
1740.722700	4.00000000E+0	
1741.210900	0.00000000E+0	
1741.699200	2.00000000E+0	
1742.187500	5.00000000E+0	
1742.675800	1.00000000E+0	
1743.164100	2.00000000E+0	
1743.652300	1.00000000E+0	
1744.140600	2.00000000E+0	
1744.628900	0.00000000E+0	
1745.117200	3.00000000E+0	
1745.605500	2.00000000E+0	
1746.093800	3.00000000E+0	
1746.582000	1.00000000E+0	
1747.07000	3.00000000E+0	
1747.558600	4.00000000E+0	
1748.046900	4.00000000E+0	
1748.535200	1.00000000E+0	
1749.023400	2.00000000E+0	
1749.511700	4.00000000E+0	
1750.00	0.00000000E+0	
1750.488300	2.00000000E+0	
1750.976600	1.00000000E+0	
1751.464800	0.00000000E+0	
1751.953100	2.00000000E+0	
1752.441400	0.00000000E+0	
1752.93000	2.00000000E+0	
1753.418000	1.00000000E+0	
1753.906300	2.00000000E+0	
1754.394500	3.00000000E+0	
1754.882800	3.00000000E+0	
1755.371100	5.00000000E+0	
1755.859400	0.00000000E+0	
1756.347700	1.00000000E+0	
1756.835900	2.00000000E+0	
1757.324200	1.00000000E+0	
1757.812500	2.00000000E+0	
1758.300800	0.00000000E+0	
1758.789100	3.00000000E+0	
1759.277300	3.00000000E+0	
1759.765600	0.00000000E+0	
1760.253900	2.00000000E+0	
1760.742200	5.00000000E+0	
1761.23000	3.00000000E+0	
1761.718800	2.00000000E+0	
1762.207000	0.00000000E+0	
1762.695300	3.00000000E+0	
1763.183600	2.00000000E+0	
1763.671900	3.00000000E+0	
1764.16000	4.00000000E+0	
1764.648400	2.00000000E+0	
1765.136700	0.00000000E+0	
1765.625000	2.00000000E+0	
1766.113300	1.00000000E+0	
1766.601600	1.00000000E+0	
1767.09000	1.00000000E+0	
1767.578100	1.00000000E+0	
1768.066400	1.00000000E+0	
1768.554700	3.00000000E+0	
1769.043000	4.00000000E+0	
1769.531300	1.00000000E+0	
1770.02000	1.00000000E+0	
1770.507800	3.00000000E+0	
1770.996100	2.00000000E+0	
1771.484400	1.00000000E+0	
1771.972700	2.00000000E+0	
1772.460900	0.00000000E+0	
1772.949200	2.00000000E+0	
1773.437500	2.00000000E+0	
1773.925800	2.00000000E+0	
1774.414100	2.00000000E+0	
1774.902300	0.00000000E+0	
1775.390600	0.00000000E+0	
1775.878900	2.00000000E+0	
1776.367200	4.00000000E+0	
1776.855500	2.00000000E+0	
1777.343800	2.00000000E+0	
1777.832000	2.00000000E+0	
1778.32000	0.00000000E+0	
1778.808600	3.00000000E+0	
1779.296900	1.00000000E+0	
1779.785200	2.00000000E+0	
1780.273400	3.00000000E+0	
1780.761700	0.00000000E+0	
1781.25000	1.00000000E+0	
1781.738300	2.00000000E+0	
1782.226600	2.00000000E+0	
1782.714800	3.00000000E+0	
1783.203100	2.00000000E+0	
1783.691400	1.00000000E+0	
1784.18000	2.00000000E+0	
1784.668000	3.00000000E+0	
1785.156300	2.00000000E+0	
1785.644500	1.00000000E+0	
1786.132800	0.00000000E+0	
1786.621100	3.00000000E+0	
1787.109400	3.00000000E+0	
1787.597700	3.00000000E+0	
1788.085900	3.00000000E+0	
1788.574200	1.00000000E+0	
1789.062500	1.00000000E+0	
1789.550800	3.00000000E+0	
1790.039100	2.00000000E+0	
1790.527300	4.00000000E+0	
1791.015600	1.00000000E+0	
1791.503900	0.00000000E+0	
1791.992200	1.00000000E+0	
1792.48000	1.00000000E+0	
1792.968800	1.00000000E+0	
1793.457000	4.00000000E+0	
1793.945300	2.00000000E+0	
1794.433600	3.00000000E+0	
1794.921900	2.00000000E+0	
1795.41000	1.00000000E+0	
1795.898400	0.00000000E+0	
1796.386700	3.00000000E+0	
1796.875000	3.00000000E+0	
1797.363300	2.00000000E+0	
1797.851600	0.00000000E+0	
1798.34000	1.00000000E+0	
1798.828100	0.00000000E+0	
1799.316400	1.00000000E+0	
1799.804700	2.00000000E+0	
1800.293000	1.00000000E+0	
1800.781300	1.00000000E+0	
1801.27000	2.00000000E+0	
1801.757800	3.00000000E+0	
1802.246100	4.00000000E+0	
1802.734400	1.00000000E+0	
1803.222700	1.00000000E+0	
1803.710900	1.00000000E+0	
1804.199200	2.00000000E+0	
1804.687500	3.00000000E+0	
1805.175800	0.00000000E+0	
1805.664100	0.00000000E+0	
1806.152300	2.00000000E+0	
1806.640600	2.00000000E+0	
1807.128900	1.00000000E+0	
1807.617200	3.00000000E+0	
1808.105500	1.00000000E+0	
1808.593800	0.00000000E+0	
1809.082000	1.00000000E+0	
1809.57000	1.00000000E+0	
1810.058600	3.00000000E+0	
1810.546900	2.00000000E+0	
1811.035200	1.00000000E+0	
1811.523400	2.00000000E+0	
1812.011700	3.00000000E+0	
1812.5000	2.00000000E+0	
1812.988300	4.00000000E+0	
1813.476600	2.00000000E+0	
1813.964800	5.00000000E+0	
1814.453100	2.00000000E+0	
1814.941400	1.00000000E+0	
1815.43000	1.00000000E+0	
1815.918000	2.00000000E+0	
1816.406300	4.00000000E+0	
1816.894500	3.00000000E+0	
1817.382800	1.00000000E+0	
1817.871100	3.00000000E+0	
1818.359400	2.00000000E+0	
1818.847700	1.00000000E+0	
1819.335900	2.00000000E+0	
1819.824200	1.00000000E+0	
1820.312500	3.00000000E+0	
1820.800800	2.00000000E+0	
1821.289100	1.00000000E+0	
1821.777300	0.00000000E+0	
1822.265600	4.00000000E+0	
1822.753900	2.00000000E+0	
1823.242200	1.00000000E+0	
1823.73000	1.00000000E+0	
1824.218800	1.00000000E+0	
1824.707000	2.00000000E+0	
1825.195300	2.00000000E+0	
1825.683600	3.00000000E+0	
1826.171900	1.00000000E+0	
1826.66000	0.00000000E+0	
1827.148400	1.00000000E+0	
1827.636700	2.00000000E+0	
1828.125000	0.00000000E+0	
1828.613300	4.00000000E+0	
1829.101600	2.00000000E+0	
1829.59000	2.00000000E+0	
1830.078100	3.00000000E+0	
1830.566400	4.00000000E+0	
1831.054700	1.00000000E+0	
1831.543000	1.00000000E+0	
1832.031300	3.00000000E+0	
1832.52000	1.00000000E+0	
1833.007800	1.00000000E+0	
1833.496100	0.00000000E+0	
1833.984400	2.00000000E+0	
1834.472700	1.00000000E+0	
1834.960900	2.00000000E+0	
1835.449200	1.00000000E+0	
1835.937500	0.00000000E+0	
1836.425800	1.00000000E+0	
1836.914100	2.00000000E+0	
1837.402300	1.00000000E+0	
1837.890600	1.00000000E+0	
1838.378900	0.00000000E+0	
1838.867200	2.00000000E+0	
1839.355500	0.00000000E+0	
1839.843800	2.00000000E+0	
1840.332000	3.00000000E+0	
1840.82000	1.00000000E+0	
1841.308600	2.00000000E+0	
1841.796900	0.00000000E+0	
1842.285200	0.00000000E+0	
1842.773400	1.00000000E+0	
1843.261700	2.00000000E+0	
1843.75000	1.00000000E+0	
1844.238300	3.00000000E+0	
1844.726600	0.00000000E+0	
1845.214800	0.00000000E+0	
1845.703100	1.00000000E+0	
1846.191400	1.00000000E+0	
1846.68000	3.00000000E+0	
1847.168000	0.00000000E+0	
1847.656300	4.00000000E+0	
1848.144500	2.00000000E+0	
1848.632800	1.00000000E+0	
1849.121100	1.00000000E+0	
1849.609400	2.00000000E+0	
1850.097700	1.00000000E+0	
1850.585900	3.00000000E+0	
1851.074200	1.00000000E+0	
1851.562500	4.00000000E+0	
1852.050800	3.00000000E+0	
1852.539100	3.00000000E+0	
1853.027300	1.00000000E+0	
1853.515600	0.00000000E+0	
1854.003900	1.00000000E+0	
1854.492200	2.00000000E+0	
1854.98000	1.00000000E+0	
1855.468800	2.00000000E+0	
1855.957000	0.00000000E+0	
1856.445300	1.00000000E+0	
1856.933600	0.00000000E+0	
1857.421900	1.00000000E+0	
1857.91000	1.00000000E+0	
1858.398400	3.00000000E+0	
1858.886700	1.00000000E+0	
1859.375000	2.00000000E+0	
1859.863300	2.00000000E+0	
1860.351600	2.00000000E+0	
1860.84000	1.00000000E+0	
1861.328100	1.00000000E+0	
1861.816400	0.00000000E+0	
1862.304700	2.00000000E+0	
1862.793000	1.00000000E+0	
1863.281300	2.00000000E+0	
1863.77000	1.00000000E+0	
1864.257800	3.00000000E+0	
1864.746100	1.00000000E+0	
1865.234400	3.00000000E+0	
1865.722700	1.00000000E+0	
1866.210900	2.00000000E+0	
1866.699200	1.00000000E+0	
1867.187500	2.00000000E+0	
1867.675800	1.00000000E+0	
1868.164100	0.00000000E+0	
1868.652300	0.00000000E+0	
1869.140600	0.00000000E+0	
1869.628900	0.00000000E+0	
1870.117200	1.00000000E+0	
1870.605500	3.00000000E+0	
1871.093800	1.00000000E+0	
1871.582000	1.00000000E+0	
1872.07000	2.00000000E+0	
1872.558600	1.00000000E+0	
1873.046900	1.00000000E+0	
1873.535200	2.00000000E+0	
1874.023400	3.00000000E+0	
1874.511700	0.00000000E+0	
1875.000	3.00000000E+0	
1875.488300	1.00000000E+0	
1875.976600	3.00000000E+0	
1876.464800	0.00000000E+0	
1876.953100	0.00000000E+0	
1877.441400	2.00000000E+0	
1877.93000	2.00000000E+0	
1878.418000	0.00000000E+0	
1878.906300	3.00000000E+0	
1879.394500	2.00000000E+0	
1879.882800	2.00000000E+0	
1880.371100	1.00000000E+0	
1880.859400	2.00000000E+0	
1881.347700	2.00000000E+0	
1881.835900	0.00000000E+0	
1882.324200	0.00000000E+0	
1882.812500	0.00000000E+0	
1883.300800	2.00000000E+0	
1883.789100	1.00000000E+0	
1884.277300	1.00000000E+0	
1884.765600	0.00000000E+0	
1885.253900	1.00000000E+0	
1885.742200	0.00000000E+0	
1886.23000	3.00000000E+0	
1886.718800	3.00000000E+0	
1887.207000	0.00000000E+0	
1887.695300	3.00000000E+0	
1888.183600	1.00000000E+0	
1888.671900	0.00000000E+0	
1889.16000	4.00000000E+0	
1889.648400	0.00000000E+0	
1890.136700	0.00000000E+0	
1890.625000	0.00000000E+0	
1891.113300	1.00000000E+0	
1891.601600	2.00000000E+0	
1892.09000	2.00000000E+0	
1892.578100	1.00000000E+0	
1893.066400	2.00000000E+0	
1893.554700	2.00000000E+0	
1894.043000	1.00000000E+0	
1894.531300	2.00000000E+0	
1895.02000	1.00000000E+0	
1895.507800	1.00000000E+0	
1895.996100	0.00000000E+0	
1896.484400	1.00000000E+0	
1896.972700	0.00000000E+0	
1897.460900	2.00000000E+0	
1897.949200	0.00000000E+0	
1898.437500	1.00000000E+0	
1898.925800	1.00000000E+0	
1899.414100	2.00000000E+0	
1899.902300	0.00000000E+0	
1900.390600	1.00000000E+0	
1900.878900	2.00000000E+0	
1901.367200	4.00000000E+0	
1901.855500	3.00000000E+0	
1902.343800	2.00000000E+0	
1902.832000	1.00000000E+0	
1903.32000	2.00000000E+0	
1903.808600	1.00000000E+0	
1904.296900	1.00000000E+0	
1904.785200	1.00000000E+0	
1905.273400	3.00000000E+0	
1905.761700	1.00000000E+0	
1906.25000	0.00000000E+0	
1906.738300	1.00000000E+0	
1907.226600	2.00000000E+0	
1907.714800	2.00000000E+0	
1908.203100	1.00000000E+0	
1908.691400	4.00000000E+0	
1909.18000	2.00000000E+0	
1909.668000	3.00000000E+0	
1910.156300	0.00000000E+0	
1910.644500	1.00000000E+0	
1911.132800	1.00000000E+0	
1911.621100	1.00000000E+0	
1912.109400	0.00000000E+0	
1912.597700	3.00000000E+0	
1913.085900	0.00000000E+0	
1913.574200	1.00000000E+0	
1914.062500	1.00000000E+0	
1914.550800	1.00000000E+0	
1915.039100	4.00000000E+0	
1915.527300	1.00000000E+0	
1916.015600	1.00000000E+0	
1916.503900	0.00000000E+0	
1916.992200	1.00000000E+0	
1917.48000	1.00000000E+0	
1917.968800	2.00000000E+0	
1918.457000	2.00000000E+0	
1918.945300	1.00000000E+0	
1919.433600	2.00000000E+0	
1919.921900	0.00000000E+0	
1920.41000	2.00000000E+0	
1920.898400	1.00000000E+0	
1921.386700	0.00000000E+0	
1921.875000	0.00000000E+0	
1922.363300	1.00000000E+0	
1922.851600	1.00000000E+0	
1923.34000	0.00000000E+0	
1923.828100	2.00000000E+0	
1924.316400	1.00000000E+0	
1924.804700	0.00000000E+0	
1925.293000	2.00000000E+0	
1925.781300	2.00000000E+0	
1926.27000	1.00000000E+0	
1926.757800	1.00000000E+0	
1927.246100	1.00000000E+0	
1927.734400	0.00000000E+0	
1928.222700	3.00000000E+0	
1928.710900	0.00000000E+0	
1929.199200	3.00000000E+0	
1929.687500	1.00000000E+0	
1930.175800	1.00000000E+0	
1930.664100	0.00000000E+0	
1931.152300	5.00000000E+0	
1931.640600	2.00000000E+0	
1932.128900	1.00000000E+0	
1932.617200	2.00000000E+0	
1933.105500	2.00000000E+0	
1933.593800	2.00000000E+0	
1934.082000	1.00000000E+0	
1934.57000	2.00000000E+0	
1935.058600	3.00000000E+0	
1935.546900	1.00000000E+0	
1936.035200	0.00000000E+0	
1936.523400	2.00000000E+0	
1937.011700	1.00000000E+0	
1937.5000	3.00000000E+0	
1937.988300	3.00000000E+0	
1938.476600	2.00000000E+0	
1938.964800	2.00000000E+0	
1939.453100	0.00000000E+0	
1939.941400	2.00000000E+0	
1940.43000	4.00000000E+0	
1940.918000	0.00000000E+0	
1941.406300	3.00000000E+0	
1941.894500	0.00000000E+0	
1942.382800	1.00000000E+0	
1942.871100	2.00000000E+0	
1943.359400	3.00000000E+0	
1943.847700	4.00000000E+0	
1944.335900	0.00000000E+0	
1944.824200	0.00000000E+0	
1945.312500	0.00000000E+0	
1945.800800	4.00000000E+0	
1946.289100	3.00000000E+0	
1946.777300	1.00000000E+0	
1947.265600	1.00000000E+0	
1947.753900	2.00000000E+0	
1948.242200	1.00000000E+0	
1948.73000	4.00000000E+0	
1949.218800	1.00000000E+0	
1949.707000	3.00000000E+0	
1950.195300	1.00000000E+0	
1950.683600	2.00000000E+0	
1951.171900	0.00000000E+0	
1951.66000	2.00000000E+0	
1952.148400	2.00000000E+0	
1952.636700	1.00000000E+0	
1953.125000	1.00000000E+0	
1953.613300	0.00000000E+0	
1954.101600	3.00000000E+0	
1954.59000	3.00000000E+0	
1955.078100	0.00000000E+0	
1955.566400	0.00000000E+0	
1956.054700	1.00000000E+0	
1956.543000	1.00000000E+0	
1957.031300	1.00000000E+0	
1957.52000	2.00000000E+0	
1958.007800	2.00000000E+0	
1958.496100	3.00000000E+0	
1958.984400	2.00000000E+0	
1959.472700	1.00000000E+0	
1959.960900	0.00000000E+0	
1960.449200	1.00000000E+0	
1960.937500	2.00000000E+0	
1961.425800	0.00000000E+0	
1961.914100	0.00000000E+0	
1962.402300	1.00000000E+0	
1962.890600	5.00000000E+0	
1963.378900	1.00000000E+0	
1963.867200	1.00000000E+0	
1964.355500	0.00000000E+0	
1964.843800	1.00000000E+0	
1965.332000	2.00000000E+0	
1965.82000	0.00000000E+0	
1966.308600	2.00000000E+0	
1966.796900	0.00000000E+0	
1967.285200	1.00000000E+0	
1967.773400	1.00000000E+0	
1968.261700	0.00000000E+0	
1968.75000	0.00000000E+0	
1969.238300	1.00000000E+0	
1969.726600	1.00000000E+0	
1970.214800	2.00000000E+0	
1970.703100	0.00000000E+0	
1971.191400	1.00000000E+0	
1971.68000	2.00000000E+0	
1972.168000	3.00000000E+0	
1972.656300	1.00000000E+0	
1973.144500	0.00000000E+0	
1973.632800	2.00000000E+0	
1974.121100	1.00000000E+0	
1974.609400	1.00000000E+0	
1975.097700	2.00000000E+0	
1975.585900	1.00000000E+0	
1976.074200	1.00000000E+0	
1976.562500	1.00000000E+0	
1977.050800	1.00000000E+0	
1977.539100	2.00000000E+0	
1978.027300	5.00000000E+0	
1978.515600	0.00000000E+0	
1979.003900	5.00000000E+0	
1979.492200	1.00000000E+0	
1979.98000	1.00000000E+0	
1980.468800	0.00000000E+0	
1980.957000	1.00000000E+0	
1981.445300	1.00000000E+0	
1981.933600	2.00000000E+0	
1982.421900	2.00000000E+0	
1982.91000	2.00000000E+0	
1983.398400	5.00000000E+0	
1983.886700	0.00000000E+0	
1984.375000	1.00000000E+0	
1984.863300	0.00000000E+0	
1985.351600	4.00000000E+0	
1985.84000	3.00000000E+0	
1986.328100	0.00000000E+0	
1986.816400	0.00000000E+0	
1987.304700	0.00000000E+0	
1987.793000	2.00000000E+0	
1988.281300	1.00000000E+0	
1988.77000	2.00000000E+0	
1989.257800	4.00000000E+0	
1989.746100	6.00000000E+0	
1990.234400	0.00000000E+0	
1990.722700	1.00000000E+0	
1991.210900	0.00000000E+0	
1991.699200	1.00000000E+0	
1992.187500	2.00000000E+0	
1992.675800	4.00000000E+0	
1993.164100	0.00000000E+0	
1993.652300	2.00000000E+0	
1994.140600	2.00000000E+0	
1994.628900	3.00000000E+0	
1995.117200	2.00000000E+0	
1995.605500	3.00000000E+0	
1996.093800	1.00000000E+0	
1996.582000	1.00000000E+0	
1997.07000	1.00000000E+0	
1997.558600	1.00000000E+0	
1998.046900	2.00000000E+0	
1998.535200	1.00000000E+0	
1999.023400	2.00000000E+0	
1999.511700	0.00000000E+0	
